Frequency (Hz),Power (dB),44100.0000,2048,0,2.0000,0,L+R
0.00,-72.52
21.53,-69.32
43.07,-67.52
64.60,-67.05
86.13,-59.86
107.67,-41.89
129.20,-35.87
150.73,-40.56
172.27,-58.30
193.80,-62.36
215.33,-61.74
236.87,-47.28
258.40,-41.03
279.93,-45.17
301.46,-59.24
323.00,-62.99
344.53,-61.66
366.06,-54.63
387.60,-50.17
409.13,-53.22
430.66,-63.07
452.20,-65.26
473.73,-66.27
495.26,-59.63
516.80,-54.32
538.33,-56.35
559.86,-63.93
581.40,-65.65
602.93,-65.88
624.46,-61.27
646.00,-57.91
667.53,-61.43
689.06,-67.21
710.60,-67.91
732.13,-66.19
753.66,-61.11
775.20,-57.99
796.73,-61.50
818.26,-71.04
839.79,-72.99
861.33,-71.27
882.86,-65.80
904.39,-61.58
925.93,-62.91
947.46,-69.87
968.99,-76.27
990.53,-72.13
1012.06,-67.05
1033.59,-63.61
1055.13,-63.07
1076.66,-67.44
1098.19,-73.93
1119.73,-73.30
1141.26,-67.68
1162.79,-65.18
1184.33,-65.72
1205.86,-68.93
1227.39,-72.60
1248.93,-69.79
1270.46,-67.44
1291.99,-64.71
1313.53,-67.44
1335.06,-70.26
1356.59,-72.84
1378.13,-73.77
1399.66,-68.69
1421.19,-67.52
1442.72,-67.13
1464.26,-66.90
1485.79,-69.16
1507.32,-72.29
1528.86,-70.26
1550.39,-68.85
1571.92,-65.57
1593.46,-66.35
1614.99,-72.29
1636.52,-71.43
1658.06,-69.32
1679.59,-66.82
1701.12,-66.04
1722.66,-66.74
1744.19,-71.58
1765.72,-70.18
1787.26,-67.99
1808.79,-66.11
1830.32,-65.02
1851.86,-67.05
1873.39,-70.18
1894.92,-71.51
1916.46,-69.94
1937.99,-70.18
1959.52,-67.83
1981.05,-67.91
2002.59,-69.47
2024.12,-70.41
2045.65,-70.18
2067.19,-69.94
2088.72,-68.54
2110.25,-68.07
2131.79,-64.86
2153.32,-66.11
2174.85,-69.24
2196.39,-69.55
2217.92,-67.52
2239.45,-67.83
2260.99,-68.15
2282.52,-69.24
2304.05,-68.69
2325.59,-65.72
2347.12,-65.65
2368.65,-70.33
2390.19,-67.05
2411.72,-66.04
2433.25,-71.82
2454.79,-72.84
2476.32,-69.87
2497.85,-69.71
2519.38,-72.13
2540.92,-73.15
2562.45,-74.71
2583.98,-71.58
2605.52,-69.79
2627.05,-71.74
2648.58,-75.26
2670.12,-72.68
2691.65,-72.52
2713.18,-72.52
2734.72,-70.10
2756.25,-70.96
2777.78,-71.12
2799.32,-71.90
2820.85,-74.09
2842.38,-73.38
2863.92,-67.91
2885.45,-70.41
2906.98,-72.84
2928.52,-71.98
2950.05,-73.07
2971.58,-75.41
2993.12,-72.21
3014.65,-72.21
3036.18,-75.02
3057.71,-71.04
3079.25,-70.88
3100.78,-71.19
3122.31,-73.23
3143.85,-74.87
3165.38,-74.40
3186.91,-71.66
3208.45,-71.98
3229.98,-76.20
3251.51,-76.51
3273.05,-77.37
3294.58,-79.71
3316.11,-76.43
3337.65,-74.01
3359.18,-77.37
3380.71,-77.76
3402.25,-76.82
3423.78,-77.60
3445.31,-78.23
3466.85,-79.24
3488.38,-78.07
3509.91,-75.96
3531.45,-74.24
3552.98,-75.65
3574.51,-75.88
3596.04,-75.34
3617.58,-76.27
3639.11,-77.68
3660.64,-75.57
3682.18,-75.73
3703.71,-75.57
3725.24,-75.57
3746.78,-76.82
3768.31,-77.37
3789.84,-76.51
3811.38,-78.31
3832.91,-80.34
3854.44,-78.07
3875.98,-79.63
3897.51,-78.77
3919.04,-75.65
3940.58,-74.63
3962.11,-75.57
3983.64,-75.18
4005.18,-73.30
4026.71,-74.48
4048.24,-73.54
4069.78,-71.66
4091.31,-72.29
4112.84,-71.74
4134.38,-72.52
4155.91,-74.87
4177.44,-74.01
4198.97,-71.74
4220.51,-71.58
4242.04,-73.38
4263.57,-73.38
4285.11,-73.54
4306.64,-74.01
4328.17,-71.43
4349.71,-73.62
4371.24,-74.55
4392.77,-71.27
4414.31,-70.18
4435.84,-72.84
4457.37,-71.04
4478.91,-71.27
4500.44,-73.38
4521.97,-71.35
4543.51,-70.96
4565.04,-73.07
4586.57,-71.98
4608.11,-74.79
4629.64,-73.62
4651.17,-71.90
4672.71,-73.15
4694.24,-74.40
4715.77,-74.32
4737.30,-74.71
4758.84,-72.60
4780.37,-72.29
4801.90,-71.90
4823.44,-72.05
4844.97,-74.09
4866.50,-74.40
4888.04,-71.58
4909.57,-72.37
4931.10,-71.66
4952.64,-72.29
4974.17,-75.02
4995.70,-72.91
5017.24,-72.29
5038.77,-73.93
5060.30,-73.69
5081.84,-74.48
5103.37,-78.70
5124.90,-76.35
5146.44,-75.57
5167.97,-79.24
5189.50,-78.07
5211.04,-77.60
5232.57,-77.68
5254.10,-74.79
5275.63,-75.73
5297.17,-79.63
5318.70,-77.29
5340.23,-76.51
5361.77,-75.10
5383.30,-74.16
5404.83,-77.68
5426.37,-79.71
5447.90,-77.84
5469.43,-79.48
5490.97,-80.02
5512.50,-79.87
5534.03,-81.35
5555.57,-78.85
5577.10,-79.16
5598.63,-81.67
5620.17,-77.60
5641.70,-79.32
5663.23,-83.07
5684.77,-79.95
5706.30,-80.49
5727.83,-79.87
5749.37,-82.21
5770.90,-83.15
5792.43,-81.98
5813.96,-82.45
5835.50,-83.15
5857.03,-80.49
5878.56,-80.65
5900.10,-82.99
5921.63,-84.17
5943.16,-84.09
5964.70,-83.93
5986.23,-81.98
6007.76,-79.01
6029.30,-79.40
6050.83,-81.20
6072.36,-81.67
6093.90,-82.68
6115.43,-83.31
6136.96,-81.43
6158.50,-82.29
6180.03,-85.10
6201.56,-86.51
6223.10,-87.84
6244.63,-85.10
6266.16,-79.95
6287.70,-81.27
6309.23,-86.59
6330.76,-84.87
6352.29,-83.46
6373.83,-81.51
6395.36,-79.09
6416.89,-80.42
6438.43,-80.18
6459.96,-78.93
6481.49,-79.01
6503.03,-78.70
6524.56,-78.77
6546.09,-78.23
6567.63,-76.90
6589.16,-76.74
6610.69,-77.84
6632.23,-76.98
6653.76,-79.95
6675.29,-80.57
6696.83,-78.46
6718.36,-79.87
6739.89,-79.16
6761.43,-78.70
6782.96,-82.76
6804.49,-82.92
6826.03,-82.06
6847.56,-83.23
6869.09,-81.59
6890.63,-85.03
6912.16,-84.87
6933.69,-79.79
6955.22,-80.02
6976.76,-81.35
6998.29,-80.18
7019.82,-81.90
7041.36,-81.04
7062.89,-77.21
7084.42,-77.91
7105.96,-79.87
7127.49,-79.01
7149.02,-78.46
7170.56,-78.15
7192.09,-78.70
7213.62,-81.04
7235.16,-82.53
7256.69,-79.63
7278.22,-79.71
7299.76,-82.45
7321.29,-85.65
7342.82,-86.90
7364.36,-84.17
7385.89,-82.45
7407.42,-83.54
7428.96,-84.17
7450.49,-86.20
7472.02,-80.73
7493.55,-79.16
7515.09,-79.48
7536.62,-79.87
7558.15,-82.06
7579.69,-82.68
7601.22,-80.34
7622.75,-79.79
7644.29,-80.34
7665.82,-80.65
7687.35,-82.06
7708.89,-84.17
7730.42,-83.31
7751.95,-83.31
7773.49,-84.01
7795.02,-84.17
7816.55,-86.04
7838.09,-94.95
7859.62,-91.20
7881.15,-89.87
7902.69,-90.11
7924.22,-86.67
7945.75,-84.95
7967.29,-87.06
7988.82,-85.57
8010.35,-88.31
8031.88,-87.37
8053.42,-83.85
8074.95,-84.32
8096.48,-86.51
8118.02,-86.35
8139.55,-90.26
8161.08,-91.04
8182.62,-86.90
8204.15,-85.26
8225.68,-87.29
8247.22,-87.21
8268.75,-90.65
8290.28,-87.92
8311.82,-84.01
8333.35,-83.62
8354.88,-86.28
8376.42,-86.90
8397.95,-86.74
8419.48,-86.28
8441.02,-85.34
8462.55,-83.93
8484.08,-84.71
8505.62,-84.87
8527.15,-82.60
8548.68,-82.92
8570.21,-84.48
8591.75,-82.13
8613.28,-81.98
8634.81,-82.76
8656.35,-82.60
8677.88,-83.62
8699.41,-84.87
8720.95,-84.48
8742.48,-84.40
8764.01,-85.18
8785.55,-85.18
8807.08,-85.81
8828.61,-88.39
8850.15,-85.34
8871.68,-83.54
8893.21,-85.96
8914.75,-87.14
8936.28,-84.87
8957.81,-84.09
8979.35,-84.71
9000.88,-84.01
9022.41,-84.79
9043.95,-83.62
9065.48,-82.99
9087.01,-83.07
9108.54,-81.59
9130.08,-80.02
9151.61,-81.04
9173.14,-81.20
9194.68,-79.71
9216.21,-78.70
9237.74,-79.79
9259.28,-80.02
9280.81,-80.49
9302.34,-81.67
9323.88,-82.68
9345.41,-81.67
9366.94,-82.68
9388.48,-83.85
9410.01,-84.01
9431.54,-86.35
9453.08,-85.65
9474.61,-83.78
9496.14,-85.49
9517.68,-86.12
9539.21,-86.43
9560.74,-86.90
9582.28,-85.65
9603.81,-86.51
9625.34,-85.65
9646.88,-82.99
9668.41,-82.68
9689.94,-83.38
9711.47,-84.17
9733.01,-84.17
9754.54,-83.15
9776.07,-81.67
9797.61,-82.45
9819.14,-84.17
9840.67,-85.34
9862.21,-86.74
9883.74,-84.95
9905.27,-83.31
9926.81,-84.56
9948.34,-85.57
9969.87,-86.04
9991.41,-84.63
10012.94,-82.45
10034.47,-82.13
10056.01,-82.92
10077.54,-81.90
10099.07,-83.15
10120.61,-83.46
10142.14,-80.65
10163.67,-80.34
10185.21,-81.04
10206.74,-81.90
10228.27,-83.15
10249.80,-81.67
10271.34,-80.10
10292.87,-81.12
10314.40,-81.67
10335.94,-82.37
10357.47,-82.76
10379.00,-82.60
10400.54,-82.53
10422.07,-82.60
10443.60,-83.54
10465.14,-83.07
10486.67,-81.35
10508.20,-81.98
10529.74,-83.70
10551.27,-83.54
10572.80,-82.76
10594.34,-82.60
10615.87,-82.13
10637.40,-84.56
10658.94,-87.68
10680.47,-85.57
10702.00,-83.85
10723.54,-83.93
10745.07,-84.09
10766.60,-85.57
10788.13,-86.82
10809.67,-83.70
10831.20,-82.68
10852.73,-83.85
10874.27,-84.48
10895.80,-87.06
10917.33,-88.39
10938.87,-85.34
10960.40,-84.09
10981.93,-85.42
11003.47,-87.60
11025.00,-88.07
11046.53,-86.67
11068.07,-84.87
11089.60,-84.71
11111.13,-86.20
11132.67,-86.82
11154.20,-85.49
11175.73,-85.89
11197.27,-85.26
11218.80,-84.71
11240.33,-86.35
11261.87,-85.42
11283.40,-83.15
11304.93,-84.63
11326.46,-85.81
11348.00,-84.71
11369.53,-84.32
11391.06,-82.60
11412.60,-83.15
11434.13,-86.35
11455.66,-85.65
11477.20,-82.99
11498.73,-82.84
11520.26,-83.07
11541.80,-83.31
11563.33,-83.93
11584.86,-83.62
11606.40,-81.74
11627.93,-81.51
11649.46,-82.21
11671.00,-84.24
11692.53,-85.03
11714.06,-85.03
11735.60,-84.63
11757.13,-85.49
11778.66,-87.76
11800.20,-88.85
11821.73,-87.92
11843.26,-88.70
11864.79,-88.62
11886.33,-88.00
11907.86,-87.53
11929.39,-86.67
11950.93,-85.96
11972.46,-87.29
11993.99,-87.37
12015.53,-85.96
12037.06,-87.29
12058.59,-86.35
12080.13,-86.28
12101.66,-88.00
12123.19,-89.17
12144.73,-88.78
12166.26,-88.31
12187.79,-87.14
12209.33,-88.23
12230.86,-93.62
12252.39,-93.78
12273.93,-93.78
12295.46,-93.78
12316.99,-92.76
12338.53,-94.95
12360.06,-92.45
12381.59,-89.64
12403.13,-88.85
12424.66,-87.68
12446.19,-89.71
12467.72,-92.14
12489.26,-90.42
12510.79,-88.31
12532.32,-88.07
12553.86,-90.42
12575.39,-92.21
12596.92,-92.45
12618.46,-91.75
12639.99,-91.12
12661.52,-91.75
12683.06,-92.29
12704.59,-91.67
12726.12,-92.06
12747.66,-92.76
12769.19,-91.20
12790.72,-92.06
12812.26,-94.40
12833.79,-92.37
12855.32,-93.23
12876.86,-94.17
12898.39,-92.92
12919.92,-92.68
12941.46,-93.47
12962.99,-93.54
12984.52,-93.86
13006.05,-92.61
13027.59,-91.67
13049.12,-92.76
13070.65,-91.82
13092.19,-89.25
13113.72,-89.48
13135.25,-89.56
13156.79,-89.09
13178.32,-88.23
13199.85,-88.15
13221.39,-88.39
13242.92,-89.64
13264.45,-90.03
13285.99,-91.36
13307.52,-90.57
13329.05,-90.65
13350.59,-93.70
13372.12,-96.51
13393.65,-96.20
13415.19,-98.15
13436.72,-95.11
13458.25,-94.79
13479.79,-96.51
13501.32,-96.28
13522.85,-97.22
13544.38,-93.93
13565.92,-92.37
13587.45,-93.78
13608.98,-94.87
13630.52,-94.17
13652.05,-94.95
13673.58,-93.00
13695.12,-91.90
13716.65,-90.81
13738.18,-92.37
13759.72,-94.72
13781.25,-96.67
13802.78,-94.95
13824.32,-93.00
13845.85,-94.32
13867.38,-97.53
13888.92,-99.01
13910.45,-99.72
13931.98,-99.25
13953.52,-97.06
13975.05,-96.12
13996.58,-96.75
14018.12,-97.45
14039.65,-96.36
14061.18,-96.20
14082.71,-94.09
14104.25,-95.89
14125.78,-95.58
14147.31,-96.90
14168.85,-96.83
14190.38,-97.37
14211.91,-94.64
14233.45,-93.86
14254.98,-95.50
14276.51,-97.37
14298.05,-97.61
14319.58,-98.86
14341.11,-98.54
14362.65,-98.23
14384.18,-98.08
14405.71,-96.98
14427.25,-98.08
14448.78,-98.86
14470.31,-98.39
14491.85,-96.51
14513.38,-95.18
14534.91,-95.73
14556.45,-96.51
14577.98,-97.14
14599.51,-97.06
14621.04,-96.36
14642.58,-94.87
14664.11,-96.28
14685.64,-99.40
14707.18,-103.47
14728.71,-98.54
14750.24,-97.14
14771.78,-96.67
14793.31,-97.61
14814.84,-97.37
14836.38,-98.70
14857.91,-98.62
14879.44,-97.53
14900.98,-95.81
14922.51,-95.03
14944.04,-94.72
14965.58,-95.18
14987.11,-95.65
15008.64,-95.65
15030.18,-95.26
15051.71,-95.50
15073.24,-95.18
15094.78,-95.34
15116.31,-96.98
15137.84,-96.67
15159.38,-94.87
15180.91,-93.47
15202.44,-93.70
15223.97,-93.00
15245.51,-92.21
15267.04,-92.29
15288.57,-91.12
15310.11,-91.36
15331.64,-92.53
15353.17,-91.43
15374.71,-92.14
15396.24,-93.47
15417.77,-92.68
15439.31,-93.23
15460.84,-95.50
15482.37,-95.50
15503.91,-93.86
15525.44,-94.01
15546.97,-95.18
15568.51,-97.29
15590.04,-95.97
15611.57,-94.25
15633.11,-94.64
15654.64,-96.67
15676.17,-97.14
15697.71,-95.18
15719.24,-93.31
15740.77,-92.45
15762.30,-91.82
15783.84,-93.62
15805.37,-94.64
15826.90,-93.23
15848.44,-92.61
15869.97,-92.92
15891.50,-93.78
15913.04,-97.14
15934.57,-98.54
15956.10,-97.92
15977.64,-98.86
15999.17,-99.09
16020.70,-101.51
16042.24,-101.20
16063.77,-99.48
16085.30,-99.25
16106.84,-99.01
16128.37,-98.94
16149.90,-97.37
16171.44,-96.98
16192.97,-97.68
16214.50,-96.90
16236.04,-96.75
16257.57,-97.06
16279.10,-96.04
16300.63,-95.89
16322.17,-96.51
16343.70,-96.36
16365.23,-97.53
16386.77,-96.75
16408.30,-96.12
16429.83,-97.84
16451.37,-100.19
16472.90,-101.59
16494.43,-103.08
16515.97,-104.80
16537.50,-102.84
16559.03,-100.73
16580.57,-100.42
16602.10,-101.36
16623.63,-102.14
16645.17,-100.58
16666.70,-98.70
16688.23,-98.39
16709.77,-97.68
16731.30,-97.92
16752.83,-99.17
16774.37,-99.64
16795.90,-97.45
16817.43,-96.51
16838.96,-95.42
16860.50,-96.20
16882.03,-97.37
16903.56,-96.43
16925.10,-97.61
16946.63,-99.25
16968.16,-98.54
16989.70,-100.03
17011.23,-102.06
17032.76,-102.76
17054.30,-102.22
17075.83,-102.76
17097.36,-103.94
17118.90,-104.33
17140.43,-103.31
17161.96,-102.14
17183.50,-102.45
17205.03,-103.70
17226.56,-102.45
17248.10,-100.73
17269.63,-100.89
17291.16,-101.20
17312.70,-99.64
17334.23,-101.75
17355.76,-102.30
17377.29,-101.67
17398.83,-100.97
17420.36,-100.34
17441.89,-99.87
17463.43,-101.83
17484.96,-103.47
17506.49,-103.16
17528.03,-102.37
17549.56,-104.25
17571.09,-106.52
17592.63,-109.56
17614.16,-104.01
17635.69,-101.51
17657.23,-100.89
17678.76,-103.16
17700.29,-104.41
17721.83,-107.84
17743.36,-106.75
17764.89,-103.23
17786.43,-101.98
17807.96,-102.61
17829.49,-103.00
17851.03,-105.58
17872.56,-105.42
17894.09,-102.37
17915.63,-103.31
17937.16,-103.39
17958.69,-101.83
17980.22,-104.25
18001.76,-105.58
18023.29,-102.14
18044.82,-104.64
18066.36,-102.22
18087.89,-100.89
18109.42,-104.56
18130.96,-108.31
18152.49,-106.52
18174.02,-102.45
18195.56,-101.12
18217.09,-102.37
18238.62,-103.94
18260.16,-104.80
18281.69,-101.59
18303.22,-99.01
18324.76,-98.47
18346.29,-99.01
18367.82,-100.03
18389.36,-100.50
18410.89,-97.14
18432.42,-94.87
18453.96,-95.50
18475.49,-98.15
18497.02,-99.40
18518.55,-99.25
18540.09,-97.61
18561.62,-97.29
18583.15,-99.01
18604.69,-99.09
18626.22,-98.70
18647.75,-99.79
18669.29,-100.11
18690.82,-99.64
18712.35,-99.01
18733.89,-98.62
18755.42,-98.15
18776.95,-100.50
18798.49,-101.98
18820.02,-101.28
18841.55,-99.95
18863.09,-98.54
18884.62,-99.33
18906.15,-101.67
18927.69,-100.11
18949.22,-99.87
18970.75,-99.17
18992.29,-99.01
19013.82,-99.79
19035.35,-101.90
19056.88,-100.34
19078.42,-101.51
19099.95,-101.90
19121.48,-101.44
19143.02,-100.50
19164.55,-99.87
19186.08,-100.34
19207.62,-100.42
19229.15,-100.03
19250.68,-100.73
19272.22,-99.33
19293.75,-99.40
19315.28,-100.42
19336.82,-100.65
19358.35,-103.00
19379.88,-103.62
19401.42,-100.26
19422.95,-100.19
19444.48,-102.14
19466.02,-103.23
19487.55,-104.17
19509.08,-103.23
19530.62,-101.12
19552.15,-101.36
19573.68,-102.76
19595.21,-104.80
19616.75,-104.09
19638.28,-101.28
19659.81,-100.11
19681.35,-101.36
19702.88,-102.76
19724.41,-101.20
19745.95,-100.19
19767.48,-99.87
19789.01,-100.97
19810.55,-101.67
19832.08,-100.65
19853.61,-100.73
19875.15,-101.59
19896.68,-102.22
19918.21,-104.09
19939.75,-102.92
19961.28,-100.97
19982.81,-102.14
20004.35,-103.16
20025.88,-104.17
20047.41,-103.70
20068.95,-101.59
20090.48,-101.51
20112.01,-103.39
20133.54,-104.17
20155.08,-103.78
20176.61,-102.22
20198.14,-100.97
20219.68,-101.83
20241.21,-102.76
20262.74,-102.22
20284.28,-101.75
20305.81,-100.81
20327.34,-101.20
20348.88,-101.75
20370.41,-101.36
20391.94,-102.76
20413.48,-103.00
20435.01,-102.14
20456.54,-101.83
20478.08,-103.47
20499.61,-103.39
20521.14,-102.84
20542.68,-102.30
20564.21,-102.37
20585.74,-102.53
20607.28,-102.92
20628.81,-102.45
20650.34,-103.47
20671.88,-103.55
20693.41,-102.92
20714.94,-102.45
20736.47,-103.23
20758.01,-102.69
20779.54,-101.75
20801.07,-101.90
20822.61,-102.53
20844.14,-102.84
20865.67,-100.73
20887.21,-100.34
20908.74,-102.53
20930.27,-103.39
20951.81,-102.53
20973.34,-102.37
20994.87,-102.22
21016.41,-103.16
21037.94,-104.09
21059.47,-103.55
21081.01,-102.84
21102.54,-102.61
21124.07,-102.84
21145.61,-104.41
21167.14,-105.73
21188.67,-105.58
21210.21,-104.80
21231.74,-104.87
21253.27,-105.11
21274.80,-105.89
21296.34,-106.12
21317.87,-106.20
21339.40,-105.42
21360.94,-104.56
21382.47,-104.09
21404.00,-104.41
21425.54,-104.87
21447.07,-105.66
21468.60,-105.89
21490.14,-104.80
21511.67,-104.64
21533.20,-109.41
21554.74,-108.55
21576.27,-106.12
21597.80,-104.41
21619.34,-103.86
21640.87,-104.95
21662.40,-105.11
21683.94,-104.09
21705.47,-104.33
21727.00,-104.41
21748.54,-103.78
21770.07,-104.01
21791.60,-104.33
21813.13,-105.11
21834.67,-105.89
21856.20,-106.67
21877.73,-108.47
21899.27,-106.44
21920.80,-104.01
21942.33,-105.03
21963.87,-108.39
21985.40,-111.83
22006.93,-110.89
22028.47,-106.12
22050.00,-104.64
