Frequency (Hz),Power (dB),44100.0000,2048,0,2.0000,0,L+R
0.00,-28.76
21.53,-34.62
43.07,-63.69
64.60,-59.39
86.13,-45.25
107.67,-44.78
129.20,-57.36
150.73,-75.02
172.27,-65.33
193.80,-58.30
215.33,-62.99
236.87,-82.37
258.40,-69.71
279.93,-53.53
301.46,-51.81
323.00,-62.52
344.53,-82.53
366.06,-73.85
387.60,-65.57
409.13,-68.62
430.66,-85.96
452.20,-80.26
473.73,-61.04
495.26,-57.83
516.80,-66.27
538.33,-88.93
559.86,-85.03
581.40,-76.66
602.93,-79.01
624.46,-93.86
646.00,-97.61
667.53,-81.35
689.06,-77.60
710.60,-84.71
732.13,-105.66
753.66,-94.32
775.20,-84.56
796.73,-85.42
818.26,-97.37
839.79,-103.94
861.33,-87.21
882.86,-81.74
904.39,-86.67
925.93,-103.62
947.46,-94.87
968.99,-83.93
990.53,-83.78
1012.06,-94.32
1033.59,-104.80
1055.13,-88.31
1076.66,-82.21
1098.19,-86.43
1119.73,-103.78
1141.26,-104.87
1162.79,-92.84
1184.33,-91.67
1205.86,-100.89
1227.39,-114.41
1248.93,-96.28
1270.46,-89.71
1291.99,-93.07
1313.53,-108.23
1335.06,-110.66
1356.59,-96.98
1378.13,-94.56
1399.66,-102.37
1421.19,-119.96
1442.72,-106.44
1464.26,-99.09
1485.79,-101.59
1507.32,-114.95
1528.86,-116.36
1550.39,-101.59
1571.92,-98.47
1593.46,-104.80
1614.99,-122.38
1636.52,-107.14
1658.06,-98.47
1679.59,-99.79
1701.12,-111.20
1722.66,-115.27
1744.19,-100.73
1765.72,-96.90
1787.26,-101.83
1808.79,-119.02
1830.32,-111.52
1851.86,-102.37
1873.39,-102.37
1894.92,-112.22
1916.46,-121.28
1937.99,-106.12
1959.52,-101.83
1981.05,-105.97
2002.59,-121.05
2024.12,-110.97
2045.65,-101.36
2067.19,-101.20
2088.72,-109.80
2110.25,-123.32
2131.79,-107.30
2153.32,-102.14
2174.85,-104.80
2196.39,-117.85
2217.92,-116.13
2239.45,-105.50
2260.99,-104.56
2282.52,-111.67
2304.05,-127.07
2325.59,-112.84
2347.12,-107.22
2368.65,-109.17
2390.19,-120.74
2411.72,-125.50
2433.25,-114.56
2454.79,-112.45
2476.32,-118.08
2497.85,-128.79
2519.38,-111.44
2540.92,-104.41
2562.45,-106.28
2583.98,-117.61
2605.52,-134.33
2627.05,-123.39
2648.58,-119.80
2670.12,-126.36
2691.65,-134.57
2713.18,-116.67
2734.72,-110.97
2756.25,-111.91
2777.78,-120.03
2799.32,-119.57
2820.85,-106.91
2842.38,-104.17
2863.92,-107.69
2885.45,-121.68
2906.98,-120.35
2928.52,-111.05
2950.05,-110.97
2971.58,-120.19
2993.12,-125.11
3014.65,-111.44
3036.18,-107.77
3057.71,-109.88
3079.25,-121.13
3100.78,-114.80
3122.31,-107.30
3143.85,-107.14
3165.38,-112.53
3186.91,-129.88
3208.45,-122.30
3229.98,-117.53
3251.51,-120.03
3273.05,-131.13
3294.58,-125.27
3316.11,-114.02
3337.65,-112.22
3359.18,-119.17
3380.71,-132.85
3402.25,-120.97
3423.78,-116.13
3445.31,-117.22
3466.85,-125.58
3488.38,-126.60
3509.91,-116.60
3531.45,-115.27
3552.98,-119.25
3574.51,-129.57
3596.04,-116.67
3617.58,-111.75
3639.11,-112.22
3660.64,-118.71
3682.18,-131.21
3703.71,-120.11
3725.24,-117.14
3746.78,-121.21
3768.31,-131.91
3789.84,-119.72
3811.38,-114.56
3832.91,-114.33
3854.44,-119.33
3875.98,-126.75
3897.51,-117.22
3919.04,-115.58
3940.58,-116.99
3962.11,-126.36
3983.64,-130.97
4005.18,-126.13
4026.71,-125.50
4048.24,-129.96
4069.78,-135.58
4091.31,-125.43
4112.84,-123.16
4134.38,-124.25
4155.91,-132.22
4177.44,-125.74
4198.97,-119.88
4220.51,-119.64
4242.04,-122.46
4263.57,-133.63
4285.11,-128.79
4306.64,-126.68
4328.17,-127.22
4349.71,-133.32
4371.24,-130.74
4392.77,-124.25
4414.31,-123.79
4435.84,-125.66
4457.37,-135.35
4478.91,-133.16
4500.44,-130.51
4521.97,-131.13
4543.51,-135.27
4565.04,-126.21
4586.57,-119.49
4608.11,-118.55
4629.64,-120.35
4651.17,-129.72
4672.71,-131.21
4694.24,-128.55
4715.77,-128.71
4737.30,-132.46
4758.84,-136.68
4780.37,-129.33
4801.90,-128.86
4823.44,-129.57
4844.97,-134.88
4866.50,-127.85
4888.04,-124.33
4909.57,-124.41
4931.10,-126.99
4952.64,-135.51
4974.17,-131.99
4995.70,-131.05
5017.24,-131.60
5038.77,-137.93
5060.30,-136.13
5081.84,-132.07
5103.37,-132.07
5124.90,-134.73
5146.44,-137.15
5167.97,-130.74
5189.50,-128.94
5211.04,-129.26
5232.57,-133.55
5254.10,-130.74
5275.63,-125.66
5297.17,-125.66
5318.70,-127.93
5340.23,-132.93
5361.77,-126.91
5383.30,-123.55
5404.83,-124.25
5426.37,-129.80
5447.90,-135.74
5469.43,-131.13
5490.97,-130.90
5512.50,-131.91
5534.03,-134.02
5555.57,-126.05
5577.10,-122.69
5598.63,-122.93
5620.17,-127.22
5641.70,-134.26
5663.23,-130.58
5684.77,-128.40
5706.30,-130.90
5727.83,-138.24
5749.37,-142.77
5770.90,-135.66
5792.43,-135.51
5813.96,-140.90
5835.50,-133.16
5857.03,-126.91
5878.56,-126.05
5900.10,-127.15
5921.63,-133.08
5943.16,-133.24
5964.70,-126.60
5986.23,-126.83
6007.76,-133.32
6029.30,-136.29
6050.83,-131.44
6072.36,-131.29
6093.90,-130.82
6115.43,-135.82
6136.96,-130.97
6158.50,-127.38
6180.03,-127.46
6201.56,-130.04
6223.10,-131.52
6244.63,-126.68
6266.16,-123.94
6287.70,-124.96
6309.23,-130.58
6330.76,-132.15
6352.29,-130.43
6373.83,-130.35
6395.36,-131.29
6416.89,-136.37
6438.43,-134.49
6459.96,-134.02
6481.49,-133.63
6503.03,-136.29
6524.56,-142.31
6546.09,-141.29
6567.63,-140.66
6589.16,-141.37
6610.69,-138.48
6632.23,-130.04
6653.76,-124.96
6675.29,-124.88
6696.83,-130.51
6718.36,-137.77
6739.89,-136.91
6761.43,-137.54
6782.96,-137.07
6804.49,-139.73
6826.03,-138.32
6847.56,-138.48
6869.09,-137.93
6890.63,-138.09
6912.16,-141.76
6933.69,-141.21
6955.22,-141.37
6976.76,-141.13
6998.29,-138.87
7019.82,-132.77
7041.36,-131.91
7062.89,-132.22
7084.42,-132.38
7105.96,-135.66
7127.49,-135.66
7149.02,-134.65
7170.56,-134.57
7192.09,-137.85
7213.62,-137.15
7235.16,-130.97
7256.69,-129.96
7278.22,-133.47
7299.76,-141.13
7321.29,-134.18
7342.82,-129.72
7364.36,-130.51
7385.89,-136.84
7407.42,-144.73
7428.96,-139.18
7450.49,-137.38
7472.02,-139.96
7493.55,-145.51
7515.09,-145.35
7536.62,-141.52
7558.15,-142.38
7579.69,-147.38
7601.22,-151.14
7622.75,-145.43
7644.29,-143.32
7665.82,-145.12
7687.35,-141.37
7708.89,-134.88
7730.42,-134.88
7751.95,-135.04
7773.49,-134.26
7795.02,-131.13
7816.55,-129.72
7838.09,-131.21
7859.62,-130.19
7881.15,-131.21
7902.69,-133.87
7924.22,-135.58
7945.75,-136.29
7967.29,-135.35
7988.82,-135.58
8010.35,-135.35
8031.88,-136.99
8053.42,-136.05
8074.95,-136.21
8096.48,-138.24
8118.02,-140.27
8139.55,-140.27
8161.08,-140.04
8182.62,-142.85
8204.15,-146.06
8225.68,-147.07
8247.22,-146.60
8268.75,-143.79
8290.28,-139.80
8311.82,-138.79
8333.35,-139.34
8354.88,-138.48
8376.42,-139.96
8397.95,-142.85
8419.48,-144.73
8441.02,-145.20
8462.55,-141.52
8484.08,-136.91
8505.62,-136.91
8527.15,-137.38
8548.68,-136.05
8570.21,-135.82
8591.75,-135.58
8613.28,-136.84
8634.81,-137.46
8656.35,-136.21
8677.88,-134.65
8699.41,-135.12
8720.95,-136.13
8742.48,-135.12
8764.01,-135.04
8785.55,-137.23
8807.08,-139.57
8828.61,-140.43
8850.15,-138.87
8871.68,-140.35
8893.21,-143.79
8914.75,-145.98
8936.28,-144.73
8957.81,-141.99
8979.35,-139.65
9000.88,-140.27
9022.41,-141.45
9043.95,-139.88
9065.48,-139.88
9087.01,-142.38
9108.54,-143.01
9130.08,-142.93
9151.61,-142.54
9173.14,-145.12
9194.68,-147.70
9216.21,-148.48
9237.74,-145.74
9259.28,-141.99
9280.81,-141.21
9302.34,-142.62
9323.88,-142.23
9345.41,-140.74
9366.94,-138.32
9388.48,-134.73
9410.01,-133.08
9431.54,-135.27
9453.08,-138.95
9474.61,-140.51
9496.14,-141.45
9517.68,-140.74
9539.21,-140.27
9560.74,-142.31
9582.28,-144.81
9603.81,-146.13
9625.34,-145.27
9646.88,-143.48
9668.41,-143.32
9689.94,-144.81
9711.47,-144.81
9733.01,-143.63
9754.54,-143.56
9776.07,-145.27
9797.61,-146.68
9819.14,-146.21
9840.67,-144.81
9862.21,-145.43
9883.74,-147.38
9905.27,-148.01
9926.81,-146.68
9948.34,-146.53
9969.87,-148.79
9991.41,-150.82
10012.94,-149.65
10034.47,-149.57
10056.01,-153.71
10077.54,-157.47
10099.07,-156.53
10120.61,-153.01
10142.14,-146.84
10163.67,-145.43
10185.21,-146.84
10206.74,-146.45
10228.27,-143.40
10249.80,-142.07
10271.34,-144.02
10292.87,-145.04
10314.40,-143.48
10335.94,-142.38
10357.47,-144.57
10379.00,-147.15
10400.54,-146.60
10422.07,-144.10
10443.60,-143.24
10465.14,-145.35
10486.67,-146.29
10508.20,-144.88
10529.74,-143.87
10551.27,-146.68
10572.80,-149.34
10594.34,-149.18
10615.87,-148.56
10637.40,-150.04
10658.94,-154.50
10680.47,-156.84
10702.00,-155.20
10723.54,-150.59
10745.07,-148.32
10766.60,-150.20
10788.13,-150.74
10809.67,-149.42
10831.20,-150.59
10852.73,-154.73
10874.27,-156.76
10895.80,-152.85
10917.33,-145.74
10938.87,-143.09
10960.40,-144.65
10981.93,-145.20
11003.47,-143.79
11025.00,-143.32
11046.53,-147.70
11068.07,-150.82
11089.60,-150.82
11111.13,-145.35
11132.67,-143.63
11154.20,-145.35
11175.73,-146.13
11197.27,-144.57
11218.80,-141.99
11240.33,-143.95
11261.87,-146.21
11283.40,-146.06
11304.93,-144.73
11326.46,-146.53
11348.00,-153.48
11369.53,-156.29
11391.06,-154.11
11412.60,-149.73
11434.13,-149.10
11455.66,-150.74
11477.20,-150.82
11498.73,-149.10
11520.26,-147.62
11541.80,-149.49
11563.33,-150.12
11584.86,-149.49
11606.40,-148.56
11627.93,-151.60
11649.46,-157.23
11671.00,-157.00
11692.53,-151.68
11714.06,-148.32
11735.60,-148.71
11757.13,-149.10
11778.66,-148.79
11800.20,-148.09
11821.73,-149.89
11843.26,-154.11
11864.79,-154.96
11886.33,-150.74
11907.86,-148.01
11929.39,-149.10
11950.93,-151.14
11972.46,-150.12
11993.99,-148.17
12015.53,-148.79
12037.06,-152.31
12058.59,-153.32
12080.13,-153.01
12101.66,-148.48
12123.19,-143.56
12144.73,-141.13
12166.26,-141.60
12187.79,-144.81
12209.33,-148.40
12230.86,-147.23
12252.39,-146.68
12273.93,-147.07
12295.46,-147.15
12316.99,-147.38
12338.53,-147.93
12360.06,-147.62
12381.59,-148.09
12403.13,-148.48
12424.66,-151.29
12446.19,-151.92
12467.72,-153.71
12489.26,-155.67
12510.79,-154.73
12532.32,-152.85
12553.86,-151.84
12575.39,-152.00
12596.92,-152.39
12618.46,-152.78
12639.99,-152.54
12661.52,-152.46
12683.06,-151.60
12704.59,-151.14
12726.12,-151.21
12747.66,-151.14
12769.19,-151.29
12790.72,-150.90
12812.26,-150.59
12833.79,-150.51
12855.32,-150.43
12876.86,-150.20
12898.39,-149.49
12919.92,-149.10
12941.46,-148.95
12962.99,-149.65
12984.52,-150.12
13006.05,-148.09
13027.59,-146.99
13049.12,-147.38
13070.65,-146.06
13092.19,-141.13
13113.72,-137.38
13135.25,-136.84
13156.79,-139.10
13178.32,-143.87
13199.85,-147.70
13221.39,-146.99
13242.92,-147.78
13264.45,-149.65
13285.99,-152.93
13307.52,-152.85
13329.05,-151.84
13350.59,-151.53
13372.12,-151.29
13393.65,-150.12
13415.19,-149.10
13436.72,-149.34
13458.25,-148.63
13479.79,-147.62
13501.32,-146.76
13522.85,-145.90
13544.38,-146.76
13565.92,-148.09
13587.45,-148.95
13608.98,-150.04
13630.52,-150.20
13652.05,-150.20
13673.58,-150.67
13695.12,-150.74
13716.65,-151.60
13738.18,-152.23
13759.72,-151.45
13781.25,-151.53
13802.78,-154.65
13824.32,-157.70
13845.85,-158.87
13867.38,-160.43
13888.92,-160.36
13910.45,-160.28
13931.98,-159.26
13953.52,-158.40
13975.05,-159.50
13996.58,-160.04
14018.12,-159.42
14039.65,-159.65
14061.18,-158.79
14082.71,-158.01
14104.25,-161.45
14125.78,-162.23
14147.31,-161.61
14168.85,-160.51
14190.38,-160.51
14211.91,-160.59
14233.45,-159.58
14254.98,-158.56
14276.51,-157.00
14298.05,-157.70
14319.58,-157.54
14341.11,-155.36
14362.65,-152.54
14384.18,-151.29
14405.71,-150.90
14427.25,-151.45
14448.78,-151.92
14470.31,-149.34
14491.85,-148.56
14513.38,-148.48
14534.91,-149.42
14556.45,-152.78
14577.98,-156.06
14599.51,-158.40
14621.04,-158.32
14642.58,-159.26
14664.11,-161.37
14685.64,-162.31
14707.18,-161.84
14728.71,-159.81
14750.24,-159.58
14771.78,-160.90
14793.31,-161.14
14814.84,-160.51
14836.38,-159.42
14857.91,-160.43
14879.44,-161.68
14900.98,-163.48
14922.51,-161.53
14944.04,-160.59
14965.58,-160.36
14987.11,-160.83
15008.64,-158.56
15030.18,-155.59
15051.71,-149.96
15073.24,-148.56
15094.78,-148.17
15116.31,-149.18
15137.84,-151.29
15159.38,-152.31
15180.91,-151.29
15202.44,-151.45
15223.97,-153.09
15245.51,-156.76
15267.04,-157.78
15288.57,-157.31
15310.11,-157.70
15331.64,-159.34
15353.17,-161.14
15374.71,-161.76
15396.24,-161.45
15417.77,-161.29
15439.31,-162.08
15460.84,-162.78
15482.37,-162.78
15503.91,-160.75
15525.44,-161.37
15546.97,-162.47
15568.51,-162.70
15590.04,-162.70
15611.57,-160.59
15633.11,-160.51
15654.64,-160.12
15676.17,-159.89
15697.71,-158.09
15719.24,-157.07
15740.77,-153.71
15762.30,-152.85
15783.84,-152.54
15805.37,-153.01
15826.90,-149.73
15848.44,-148.17
15869.97,-146.45
15891.50,-147.23
15913.04,-149.10
15934.57,-153.40
15956.10,-155.28
15977.64,-154.03
15999.17,-153.79
16020.70,-155.51
16042.24,-157.23
16063.77,-157.15
16085.30,-156.68
16106.84,-156.61
16128.37,-157.62
16149.90,-158.01
16171.44,-159.65
16192.97,-159.26
16214.50,-159.97
16236.04,-160.51
16257.57,-159.81
16279.10,-161.45
16300.63,-161.37
16322.17,-161.53
16343.70,-160.67
16365.23,-160.98
16386.77,-160.59
16408.30,-161.06
16429.83,-159.97
16451.37,-159.89
16472.90,-160.04
16494.43,-160.43
16515.97,-160.43
16537.50,-160.98
16559.03,-160.59
16580.57,-160.12
16602.10,-160.59
16623.63,-160.12
16645.17,-159.81
16666.70,-160.67
16688.23,-160.67
16709.77,-159.97
16731.30,-158.64
16752.83,-157.15
16774.37,-156.14
16795.90,-151.60
16817.43,-146.21
16838.96,-144.34
16860.50,-143.63
16882.03,-145.27
16903.56,-148.17
16925.10,-155.20
16946.63,-158.25
16968.16,-159.81
16989.70,-160.83
17011.23,-162.78
17032.76,-161.92
17054.30,-160.98
17075.83,-159.81
17097.36,-159.81
17118.90,-159.65
17140.43,-159.73
17161.96,-157.78
17183.50,-157.86
17205.03,-157.00
17226.56,-158.87
17248.10,-158.25
17269.63,-155.75
17291.16,-150.12
17312.70,-146.45
17334.23,-145.12
17355.76,-145.20
17377.29,-146.76
17398.83,-149.89
17420.36,-155.67
17441.89,-157.54
17463.43,-160.36
17484.96,-158.56
17506.49,-159.65
17528.03,-159.65
17549.56,-161.76
17571.09,-163.95
17592.63,-163.09
17614.16,-163.48
17635.69,-162.54
17657.23,-161.53
17678.76,-161.22
17700.29,-161.14
17721.83,-162.54
17743.36,-162.86
17764.89,-163.01
17786.43,-161.68
17807.96,-162.86
17829.49,-161.84
17851.03,-162.15
17872.56,-162.00
17894.09,-160.98
17915.63,-162.39
17937.16,-158.56
17958.69,-158.09
17980.22,-157.00
18001.76,-159.42
18023.29,-158.40
18044.82,-158.01
18066.36,-157.62
18087.89,-157.31
18109.42,-157.15
18130.96,-156.21
18152.49,-157.54
18174.02,-157.47
18195.56,-158.48
18217.09,-158.56
18238.62,-158.01
18260.16,-158.25
18281.69,-155.98
18303.22,-157.23
18324.76,-157.31
18346.29,-160.83
18367.82,-158.95
18389.36,-160.36
18410.89,-158.95
18432.42,-158.32
18453.96,-160.04
18475.49,-158.25
18497.02,-160.98
18518.55,-160.20
18540.09,-161.76
18561.62,-159.34
18583.15,-160.51
18604.69,-159.65
18626.22,-161.68
18647.75,-165.12
18669.29,-163.56
18690.82,-165.51
18712.35,-166.30
18733.89,-167.08
18755.42,-165.67
18776.95,-164.81
18798.49,-166.22
18820.02,-164.19
18841.55,-165.28
18863.09,-161.92
18884.62,-163.25
18906.15,-162.86
18927.69,-162.62
18949.22,-163.01
18970.75,-161.68
18992.29,-162.86
19013.82,-161.92
19035.35,-166.14
19056.88,-161.92
19078.42,-164.11
19099.95,-161.84
19121.48,-164.42
19143.02,-166.22
19164.55,-164.50
19186.08,-165.20
19207.62,-162.86
19229.15,-165.36
19250.68,-163.48
19272.22,-164.73
19293.75,-162.39
19315.28,-163.40
19336.82,-165.12
19358.35,-162.94
19379.88,-165.98
19401.42,-164.26
19422.95,-169.34
19444.48,-166.45
19466.02,-168.25
19487.55,-165.05
19509.08,-164.03
19530.62,-167.86
19552.15,-165.51
19573.68,-167.31
19595.21,-163.09
19616.75,-163.56
19638.28,-162.39
19659.81,-162.39
19681.35,-164.19
19702.88,-163.56
19724.41,-166.61
19745.95,-163.09
19767.48,-165.44
19789.01,-161.29
19810.55,-163.25
19832.08,-165.67
19853.61,-164.34
19875.15,-164.58
19896.68,-163.01
19918.21,-166.84
19939.75,-162.47
19961.28,-165.05
19982.81,-164.26
20004.35,-166.84
20025.88,-167.78
20047.41,-167.08
20068.95,-165.28
20090.48,-162.62
20112.01,-167.70
20133.54,-167.23
20155.08,-168.25
20176.61,-167.70
20198.14,-166.76
20219.68,-167.23
20241.21,-164.81
20262.74,-167.78
20284.28,-162.00
20305.81,-165.90
20327.34,-164.97
20348.88,-165.51
20370.41,-163.25
20391.94,-160.59
20413.48,-161.68
20435.01,-159.34
20456.54,-164.58
20478.08,-161.53
20499.61,-164.50
20521.14,-161.45
20542.68,-162.47
20564.21,-160.59
20585.74,-158.48
20607.28,-164.42
20628.81,-161.76
20650.34,-165.28
20671.88,-161.61
20693.41,-163.17
20714.94,-160.28
20736.47,-159.81
20758.01,-162.78
20779.54,-160.36
20801.07,-164.97
20822.61,-160.90
20844.14,-164.50
20865.67,-160.98
20887.21,-162.70
20908.74,-164.89
20930.27,-163.64
20951.81,-167.55
20973.34,-164.42
20994.87,-168.09
21016.41,-165.36
21037.94,-168.25
21059.47,-163.01
21081.01,-163.25
21102.54,-166.30
21124.07,-164.65
21145.61,-167.86
21167.14,-164.11
21188.67,-167.70
21210.21,-164.34
21231.74,-165.67
21253.27,-164.65
21274.80,-164.11
21296.34,-168.87
21317.87,-167.70
21339.40,-168.87
21360.94,-163.25
21382.47,-166.45
21404.00,-163.95
21425.54,-164.97
21447.07,-166.30
21468.60,-165.44
21490.14,-167.08
21511.67,-162.70
21533.20,-166.69
21554.74,-163.87
21576.27,-166.37
21597.80,-168.48
21619.34,-169.11
21640.87,-168.01
21662.40,-165.05
21683.94,-168.17
21705.47,-164.73
21727.00,-168.56
21748.54,-165.75
21770.07,-167.86
21791.60,-167.31
21813.13,-165.90
21834.67,-168.72
21856.20,-165.98
21877.73,-169.26
21899.27,-165.98
21920.80,-169.34
21942.33,-169.66
21963.87,-169.26
21985.40,-169.34
22006.93,-166.53
22028.47,-168.33
22050.00,-165.20
