Frequency (Hz),Power (dB),44100.0000,2048,0,2.0000,0,L+R
0.00,-98.08
21.53,-89.25
43.07,-50.88
64.60,-44.47
86.13,-50.10
107.67,-48.84
129.20,-42.05
150.73,-47.20
172.27,-48.45
193.80,-41.11
215.33,-45.80
236.87,-51.58
258.40,-43.69
279.93,-47.75
301.46,-52.44
323.00,-44.16
344.53,-47.91
366.06,-52.99
387.60,-44.16
409.13,-47.28
430.66,-54.00
452.20,-45.17
473.73,-48.14
495.26,-58.14
516.80,-49.00
538.33,-51.35
559.86,-58.93
581.40,-49.08
602.93,-51.03
624.46,-59.79
646.00,-49.63
667.53,-50.80
689.06,-60.41
710.60,-50.80
732.13,-51.81
753.66,-60.96
775.20,-51.11
796.73,-51.50
818.26,-61.04
839.79,-51.74
861.33,-51.97
882.86,-61.74
904.39,-53.38
925.93,-53.14
947.46,-62.29
968.99,-53.61
990.53,-52.83
1012.06,-61.89
1033.59,-54.71
1055.13,-53.92
1076.66,-62.91
1098.19,-56.58
1119.73,-55.02
1141.26,-63.38
1162.79,-56.35
1184.33,-54.71
1205.86,-63.15
1227.39,-57.68
1248.93,-55.49
1270.46,-63.07
1291.99,-58.22
1313.53,-56.11
1335.06,-63.07
1356.59,-57.83
1378.13,-55.02
1399.66,-61.43
1421.19,-58.53
1442.72,-55.64
1464.26,-61.35
1485.79,-58.85
1507.32,-55.64
1528.86,-61.43
1550.39,-59.08
1571.92,-55.80
1593.46,-61.66
1614.99,-61.04
1636.52,-58.14
1658.06,-62.68
1679.59,-61.82
1701.12,-58.46
1722.66,-62.52
1744.19,-62.36
1765.72,-58.07
1787.26,-62.21
1808.79,-62.68
1830.32,-58.69
1851.86,-62.36
1873.39,-63.38
1894.92,-59.39
1916.46,-62.60
1937.99,-63.61
1959.52,-59.47
1981.05,-62.21
2002.59,-64.63
2024.12,-59.55
2045.65,-62.36
2067.19,-65.18
2088.72,-60.64
2110.25,-62.29
2131.79,-64.71
2153.32,-60.25
2174.85,-62.29
2196.39,-65.49
2217.92,-60.49
2239.45,-62.13
2260.99,-65.49
2282.52,-61.11
2304.05,-62.05
2325.59,-65.65
2347.12,-61.27
2368.65,-62.21
2390.19,-66.43
2411.72,-62.44
2433.25,-62.44
2454.79,-65.65
2476.32,-62.05
2497.85,-62.36
2519.38,-66.04
2540.92,-62.52
2562.45,-61.74
2583.98,-65.26
2605.52,-62.13
2627.05,-62.36
2648.58,-66.35
2670.12,-63.61
2691.65,-63.38
2713.18,-67.29
2734.72,-64.00
2756.25,-63.30
2777.78,-66.35
2799.32,-64.94
2820.85,-63.85
2842.38,-66.82
2863.92,-64.32
2885.45,-63.77
2906.98,-66.90
2928.52,-64.63
2950.05,-64.40
2971.58,-66.97
2993.12,-64.86
3014.65,-64.71
3036.18,-67.13
3057.71,-66.04
3079.25,-65.02
3100.78,-66.97
3122.31,-66.11
3143.85,-65.18
3165.38,-67.76
3186.91,-67.05
3208.45,-65.41
3229.98,-67.91
3251.51,-66.35
3273.05,-66.11
3294.58,-67.44
3316.11,-66.97
3337.65,-65.88
3359.18,-66.90
3380.71,-66.27
3402.25,-65.33
3423.78,-66.90
3445.31,-66.58
3466.85,-65.02
3488.38,-66.11
3509.91,-66.27
3531.45,-65.49
3552.98,-66.58
3574.51,-66.51
3596.04,-65.96
3617.58,-66.51
3639.11,-66.58
3660.64,-65.41
3682.18,-66.43
3703.71,-66.43
3725.24,-65.57
3746.78,-66.43
3768.31,-66.90
3789.84,-66.04
3811.38,-66.43
3832.91,-66.90
3854.44,-66.35
3875.98,-66.66
3897.51,-67.29
3919.04,-66.74
3940.58,-66.82
3962.11,-67.05
3983.64,-67.05
4005.18,-66.97
4026.71,-67.13
4048.24,-66.74
4069.78,-66.90
4091.31,-67.60
4112.84,-67.13
4134.38,-67.29
4155.91,-68.07
4177.44,-67.76
4198.97,-67.60
4220.51,-67.83
4242.04,-67.76
4263.57,-68.30
4285.11,-68.15
4306.64,-68.30
4328.17,-68.38
4349.71,-68.22
4371.24,-67.99
4392.77,-68.38
4414.31,-67.91
4435.84,-68.38
4457.37,-67.99
4478.91,-68.38
4500.44,-68.30
4521.97,-68.69
4543.51,-68.85
4565.04,-68.93
4586.57,-69.01
4608.11,-68.77
4629.64,-69.08
4651.17,-69.79
4672.71,-67.91
4694.24,-68.69
4715.77,-69.01
4737.30,-69.01
4758.84,-69.32
4780.37,-69.08
4801.90,-69.16
4823.44,-69.40
4844.97,-69.32
4866.50,-69.32
4888.04,-69.47
4909.57,-70.10
4931.10,-69.24
4952.64,-69.55
4974.17,-70.41
4995.70,-69.47
5017.24,-69.71
5038.77,-69.47
5060.30,-69.63
5081.84,-70.33
5103.37,-70.10
5124.90,-69.32
5146.44,-69.24
5167.97,-69.94
5189.50,-69.55
5211.04,-70.26
5232.57,-70.96
5254.10,-69.63
5275.63,-69.63
5297.17,-70.33
5318.70,-69.63
5340.23,-69.47
5361.77,-69.94
5383.30,-70.26
5404.83,-70.26
5426.37,-70.26
5447.90,-69.87
5469.43,-70.10
5490.97,-70.65
5512.50,-70.10
5534.03,-69.71
5555.57,-70.57
5577.10,-70.65
5598.63,-70.18
5620.17,-70.73
5641.70,-70.10
5663.23,-69.79
5684.77,-70.88
5706.30,-70.57
5727.83,-70.18
5749.37,-70.80
5770.90,-70.96
5792.43,-70.96
5813.96,-70.88
5835.50,-70.02
5857.03,-69.79
5878.56,-70.41
5900.10,-70.73
5921.63,-70.02
5943.16,-70.57
5964.70,-70.73
5986.23,-70.26
6007.76,-70.41
6029.30,-70.49
6050.83,-70.02
6072.36,-70.73
6093.90,-70.57
6115.43,-71.04
6136.96,-70.88
6158.50,-70.49
6180.03,-69.87
6201.56,-70.65
6223.10,-71.12
6244.63,-70.88
6266.16,-71.35
6287.70,-71.82
6309.23,-70.88
6330.76,-71.43
6352.29,-71.58
6373.83,-71.12
6395.36,-71.19
6416.89,-71.35
6438.43,-71.58
6459.96,-72.21
6481.49,-72.05
6503.03,-71.66
6524.56,-72.37
6546.09,-72.29
6567.63,-71.51
6589.16,-71.66
6610.69,-72.91
6632.23,-72.99
6653.76,-72.13
6675.29,-72.52
6696.83,-71.82
6718.36,-72.52
6739.89,-72.37
6761.43,-72.29
6782.96,-72.52
6804.49,-72.44
6826.03,-72.84
6847.56,-72.76
6869.09,-72.60
6890.63,-72.52
6912.16,-73.07
6933.69,-72.99
6955.22,-72.68
6976.76,-72.44
6998.29,-72.76
7019.82,-72.84
7041.36,-72.37
7062.89,-72.44
7084.42,-73.07
7105.96,-73.30
7127.49,-73.15
7149.02,-72.99
7170.56,-73.07
7192.09,-73.30
7213.62,-73.38
7235.16,-73.15
7256.69,-73.23
7278.22,-73.62
7299.76,-73.46
7321.29,-73.69
7342.82,-73.38
7364.36,-72.84
7385.89,-73.46
7407.42,-73.62
7428.96,-73.07
7450.49,-73.15
7472.02,-73.62
7493.55,-73.30
7515.09,-73.54
7536.62,-73.15
7558.15,-73.23
7579.69,-72.91
7601.22,-73.07
7622.75,-73.15
7644.29,-72.84
7665.82,-72.99
7687.35,-72.99
7708.89,-72.91
7730.42,-72.60
7751.95,-72.68
7773.49,-72.68
7795.02,-72.13
7816.55,-73.54
7838.09,-73.07
7859.62,-73.07
7881.15,-72.21
7902.69,-72.91
7924.22,-73.23
7945.75,-73.62
7967.29,-72.60
7988.82,-72.84
8010.35,-73.69
8031.88,-72.76
8053.42,-73.54
8074.95,-73.93
8096.48,-72.99
8118.02,-72.91
8139.55,-73.93
8161.08,-73.54
8182.62,-73.38
8204.15,-73.54
8225.68,-72.60
8247.22,-72.05
8268.75,-73.46
8290.28,-73.07
8311.82,-72.52
8333.35,-73.23
8354.88,-73.15
8376.42,-72.99
8397.95,-73.54
8419.48,-73.54
8441.02,-72.84
8462.55,-74.16
8484.08,-73.62
8505.62,-72.91
8527.15,-73.62
8548.68,-73.85
8570.21,-72.91
8591.75,-73.54
8613.28,-73.93
8634.81,-73.30
8656.35,-74.01
8677.88,-73.62
8699.41,-72.91
8720.95,-74.16
8742.48,-74.09
8764.01,-73.23
8785.55,-73.69
8807.08,-74.01
8828.61,-72.84
8850.15,-74.01
8871.68,-73.93
8893.21,-73.30
8914.75,-74.71
8936.28,-74.48
8957.81,-73.54
8979.35,-74.16
9000.88,-74.95
9022.41,-73.69
9043.95,-73.93
9065.48,-74.40
9087.01,-73.38
9108.54,-74.16
9130.08,-74.71
9151.61,-74.24
9173.14,-74.71
9194.68,-75.18
9216.21,-74.01
9237.74,-74.09
9259.28,-74.87
9280.81,-74.09
9302.34,-74.63
9323.88,-75.49
9345.41,-74.09
9366.94,-74.55
9388.48,-75.65
9410.01,-74.63
9431.54,-74.55
9453.08,-75.96
9474.61,-74.95
9496.14,-74.87
9517.68,-75.34
9539.21,-74.32
9560.74,-74.87
9582.28,-76.04
9603.81,-75.26
9625.34,-74.79
9646.88,-75.65
9668.41,-74.79
9689.94,-74.71
9711.47,-75.73
9733.01,-74.71
9754.54,-74.79
9776.07,-75.88
9797.61,-75.65
9819.14,-75.41
9840.67,-76.20
9862.21,-75.65
9883.74,-75.10
9905.27,-76.43
9926.81,-74.95
9948.34,-74.95
9969.87,-76.12
9991.41,-75.73
10012.94,-75.26
10034.47,-76.35
10056.01,-75.96
10077.54,-75.34
10099.07,-76.43
10120.61,-75.34
10142.14,-75.10
10163.67,-76.59
10185.21,-75.88
10206.74,-75.18
10228.27,-76.35
10249.80,-76.04
10271.34,-75.49
10292.87,-76.51
10314.40,-75.96
10335.94,-75.41
10357.47,-76.74
10379.00,-76.27
10400.54,-75.65
10422.07,-76.59
10443.60,-76.04
10465.14,-75.18
10486.67,-76.66
10508.20,-76.90
10529.74,-76.12
10551.27,-76.35
10572.80,-76.51
10594.34,-75.49
10615.87,-76.51
10637.40,-77.13
10658.94,-76.12
10680.47,-76.98
10702.00,-76.74
10723.54,-75.96
10745.07,-76.82
10766.60,-76.82
10788.13,-76.35
10809.67,-76.51
10831.20,-76.90
10852.73,-76.20
10874.27,-76.43
10895.80,-77.13
10917.33,-76.74
10938.87,-76.82
10960.40,-76.98
10981.93,-76.20
11003.47,-77.05
11025.00,-77.45
11046.53,-76.66
11068.07,-76.82
11089.60,-77.37
11111.13,-76.51
11132.67,-76.90
11154.20,-77.60
11175.73,-77.52
11197.27,-77.91
11218.80,-78.15
11240.33,-76.82
11261.87,-76.98
11283.40,-77.29
11304.93,-76.82
11326.46,-76.90
11348.00,-77.84
11369.53,-77.13
11391.06,-76.90
11412.60,-77.60
11434.13,-77.84
11455.66,-77.68
11477.20,-78.46
11498.73,-78.23
11520.26,-77.52
11541.80,-77.76
11563.33,-77.68
11584.86,-77.29
11606.40,-77.84
11627.93,-78.70
11649.46,-78.38
11671.00,-77.13
11692.53,-76.74
11714.06,-76.35
11735.60,-77.37
11757.13,-77.29
11778.66,-81.27
11800.20,-81.27
11821.73,-79.32
11843.26,-78.15
11864.79,-78.23
11886.33,-78.31
11907.86,-77.45
11929.39,-77.84
11950.93,-78.62
11972.46,-78.85
11993.99,-78.85
12015.53,-78.62
12037.06,-78.07
12058.59,-78.23
12080.13,-78.07
12101.66,-78.38
12123.19,-78.62
12144.73,-78.62
12166.26,-78.15
12187.79,-78.62
12209.33,-78.54
12230.86,-78.54
12252.39,-78.85
12273.93,-79.09
12295.46,-78.54
12316.99,-78.54
12338.53,-78.54
12360.06,-78.70
12381.59,-78.70
12403.13,-78.77
12424.66,-78.46
12446.19,-78.54
12467.72,-78.93
12489.26,-78.85
12510.79,-78.70
12532.32,-78.85
12553.86,-78.85
12575.39,-78.93
12596.92,-79.40
12618.46,-79.32
12639.99,-79.32
12661.52,-79.09
12683.06,-79.24
12704.59,-78.77
12726.12,-79.32
12747.66,-79.24
12769.19,-79.48
12790.72,-79.63
12812.26,-79.32
12833.79,-79.24
12855.32,-79.95
12876.86,-80.02
12898.39,-80.10
12919.92,-79.71
12941.46,-79.24
12962.99,-79.79
12984.52,-79.63
13006.05,-79.32
13027.59,-79.48
13049.12,-79.40
13070.65,-79.87
13092.19,-79.87
13113.72,-79.48
13135.25,-79.71
13156.79,-80.34
13178.32,-79.71
13199.85,-80.10
13221.39,-79.87
13242.92,-80.10
13264.45,-80.42
13285.99,-80.02
13307.52,-80.18
13329.05,-80.10
13350.59,-79.95
13372.12,-80.26
13393.65,-79.95
13415.19,-80.57
13436.72,-80.57
13458.25,-80.49
13479.79,-80.10
13501.32,-80.10
13522.85,-80.73
13544.38,-80.49
13565.92,-80.26
13587.45,-80.65
13608.98,-80.18
13630.52,-80.49
13652.05,-80.88
13673.58,-80.81
13695.12,-80.49
13716.65,-80.96
13738.18,-80.73
13759.72,-80.49
13781.25,-81.12
13802.78,-81.04
13824.32,-80.81
13845.85,-80.73
13867.38,-80.96
13888.92,-80.81
13910.45,-81.12
13931.98,-80.96
13953.52,-80.73
13975.05,-81.04
13996.58,-81.43
14018.12,-81.04
14039.65,-80.88
14061.18,-81.67
14082.71,-81.35
14104.25,-80.65
14125.78,-81.12
14147.31,-81.43
14168.85,-81.20
14190.38,-81.04
14211.91,-81.04
14233.45,-81.59
14254.98,-81.82
14276.51,-81.59
14298.05,-81.35
14319.58,-81.27
14341.11,-81.20
14362.65,-81.67
14384.18,-81.90
14405.71,-81.51
14427.25,-81.35
14448.78,-81.20
14470.31,-81.51
14491.85,-81.59
14513.38,-81.67
14534.91,-81.51
14556.45,-81.20
14577.98,-81.35
14599.51,-81.59
14621.04,-81.51
14642.58,-81.27
14664.11,-81.35
14685.64,-81.43
14707.18,-81.51
14728.71,-81.12
14750.24,-81.35
14771.78,-81.59
14793.31,-81.74
14814.84,-81.59
14836.38,-81.51
14857.91,-81.27
14879.44,-81.35
14900.98,-81.27
14922.51,-81.35
14944.04,-81.20
14965.58,-81.35
14987.11,-81.74
15008.64,-81.82
15030.18,-81.67
15051.71,-81.82
15073.24,-81.67
15094.78,-81.35
15116.31,-82.06
15137.84,-82.13
15159.38,-82.13
15180.91,-82.45
15202.44,-82.06
15223.97,-82.29
15245.51,-82.06
15267.04,-82.45
15288.57,-82.21
15310.11,-82.29
15331.64,-82.84
15353.17,-82.84
15374.71,-82.68
15396.24,-82.84
15417.77,-82.68
15439.31,-83.23
15460.84,-83.15
15482.37,-82.99
15503.91,-83.23
15525.44,-83.07
15546.97,-82.84
15568.51,-83.15
15590.04,-82.76
15611.57,-82.45
15633.11,-83.54
15654.64,-84.95
15676.17,-86.28
15697.71,-83.85
15719.24,-83.23
15740.77,-83.62
15762.30,-83.62
15783.84,-84.71
15805.37,-83.93
15826.90,-84.09
15848.44,-84.95
15869.97,-84.63
15891.50,-84.32
15913.04,-85.10
15934.57,-85.34
15956.10,-85.10
15977.64,-85.49
15999.17,-85.34
16020.70,-85.18
16042.24,-85.34
16063.77,-85.42
16085.30,-85.03
16106.84,-85.42
16128.37,-85.26
16149.90,-85.10
16171.44,-85.26
16192.97,-85.10
16214.50,-85.03
16236.04,-85.10
16257.57,-85.34
16279.10,-84.40
16300.63,-85.18
16322.17,-85.65
16343.70,-85.42
16365.23,-85.57
16386.77,-85.49
16408.30,-85.18
16429.83,-85.42
16451.37,-86.43
16472.90,-85.18
16494.43,-84.95
16515.97,-85.26
16537.50,-85.26
16559.03,-85.42
16580.57,-86.04
16602.10,-85.49
16623.63,-85.57
16645.17,-85.96
16666.70,-85.42
16688.23,-85.73
16709.77,-85.89
16731.30,-85.57
16752.83,-85.73
16774.37,-86.28
16795.90,-86.28
16817.43,-86.12
16838.96,-86.74
16860.50,-86.04
16882.03,-85.65
16903.56,-85.89
16925.10,-85.65
16946.63,-85.65
16968.16,-86.59
16989.70,-86.43
17011.23,-86.28
17032.76,-86.90
17054.30,-86.51
17075.83,-86.12
17097.36,-86.98
17118.90,-86.59
17140.43,-86.35
17161.96,-87.68
17183.50,-87.60
17205.03,-86.82
17226.56,-87.21
17248.10,-87.37
17269.63,-87.14
17291.16,-87.84
17312.70,-87.84
17334.23,-87.14
17355.76,-87.92
17377.29,-88.07
17398.83,-87.37
17420.36,-87.76
17441.89,-88.00
17463.43,-87.68
17484.96,-88.62
17506.49,-88.85
17528.03,-87.68
17549.56,-87.68
17571.09,-88.46
17592.63,-87.45
17614.16,-88.54
17635.69,-89.87
17657.23,-88.23
17678.76,-88.62
17700.29,-89.56
17721.83,-88.46
17743.36,-89.32
17764.89,-89.56
17786.43,-88.70
17807.96,-89.40
17829.49,-89.95
17851.03,-89.64
17872.56,-89.79
17894.09,-90.42
17915.63,-89.40
17937.16,-89.56
17958.69,-90.11
17980.22,-89.71
18001.76,-89.95
18023.29,-90.57
18044.82,-90.26
18066.36,-90.57
18087.89,-91.12
18109.42,-90.57
18130.96,-91.12
18152.49,-91.20
18174.02,-91.12
18195.56,-91.28
18217.09,-91.98
18238.62,-91.36
18260.16,-91.43
18281.69,-92.37
18303.22,-91.36
18324.76,-91.51
18346.29,-92.68
18367.82,-91.90
18389.36,-91.98
18410.89,-92.53
18432.42,-92.29
18453.96,-92.53
18475.49,-93.23
18497.02,-92.84
18518.55,-92.92
18540.09,-93.78
18561.62,-92.92
18583.15,-92.76
18604.69,-93.78
18626.22,-93.39
18647.75,-93.23
18669.29,-94.09
18690.82,-94.40
18712.35,-94.32
18733.89,-94.56
18755.42,-93.93
18776.95,-93.23
18798.49,-94.25
18820.02,-94.56
18841.55,-94.87
18863.09,-95.18
18884.62,-94.95
18906.15,-95.03
18927.69,-95.81
18949.22,-96.04
18970.75,-95.50
18992.29,-95.97
19013.82,-96.20
19035.35,-95.58
19056.88,-96.20
19078.42,-96.28
19099.95,-96.12
19121.48,-97.22
19143.02,-97.45
19164.55,-96.98
19186.08,-97.29
19207.62,-97.22
19229.15,-97.37
19250.68,-97.68
19272.22,-97.92
19293.75,-97.06
19315.28,-97.61
19336.82,-98.31
19358.35,-98.39
19379.88,-99.09
19401.42,-98.94
19422.95,-98.39
19444.48,-98.78
19466.02,-98.54
19487.55,-98.47
19509.08,-99.25
19530.62,-99.56
19552.15,-99.72
19573.68,-99.72
19595.21,-99.95
19616.75,-99.56
19638.28,-99.79
19659.81,-100.58
19681.35,-100.34
19702.88,-100.65
19724.41,-100.97
19745.95,-101.67
19767.48,-101.90
19789.01,-101.51
19810.55,-101.90
19832.08,-102.14
19853.61,-101.83
19875.15,-102.37
19896.68,-102.61
19918.21,-102.76
19939.75,-102.61
19961.28,-102.61
19982.81,-103.78
20004.35,-103.55
20025.88,-103.70
20047.41,-103.62
20068.95,-104.09
20090.48,-104.56
20112.01,-104.72
20133.54,-104.56
20155.08,-104.72
20176.61,-104.87
20198.14,-105.03
20219.68,-104.95
20241.21,-105.66
20262.74,-106.05
20284.28,-105.81
20305.81,-105.97
20327.34,-106.91
20348.88,-107.22
20370.41,-106.67
20391.94,-107.14
20413.48,-106.98
20435.01,-107.22
20456.54,-107.84
20478.08,-108.00
20499.61,-108.08
20521.14,-108.55
20542.68,-108.94
20564.21,-109.25
20585.74,-109.48
20607.28,-109.33
20628.81,-109.80
20650.34,-110.58
20671.88,-110.50
20693.41,-110.74
20714.94,-111.36
20736.47,-111.83
20758.01,-112.06
20779.54,-111.52
20801.07,-112.38
20822.61,-112.77
20844.14,-113.24
20865.67,-113.39
20887.21,-113.39
20908.74,-113.86
20930.27,-114.56
20951.81,-114.88
20973.34,-114.88
20994.87,-115.35
21016.41,-116.36
21037.94,-116.28
21059.47,-116.83
21081.01,-116.91
21102.54,-117.14
21124.07,-118.00
21145.61,-118.47
21167.14,-118.71
21188.67,-119.49
21210.21,-119.49
21231.74,-119.80
21253.27,-120.35
21274.80,-121.21
21296.34,-121.36
21317.87,-121.99
21339.40,-122.61
21360.94,-122.53
21382.47,-124.18
21404.00,-124.33
21425.54,-124.49
21447.07,-125.19
21468.60,-126.44
21490.14,-126.29
21511.67,-127.54
21533.20,-128.86
21554.74,-128.63
21576.27,-129.72
21597.80,-130.66
21619.34,-131.21
21640.87,-132.46
21662.40,-133.16
21683.94,-133.63
21705.47,-135.35
21727.00,-136.84
21748.54,-137.15
21770.07,-138.55
21791.60,-140.12
21813.13,-141.76
21834.67,-143.01
21856.20,-144.73
21877.73,-146.45
21899.27,-148.95
21920.80,-150.82
21942.33,-152.62
21963.87,-154.89
21985.40,-155.82
22006.93,-156.14
22028.47,-156.29
22050.00,-157.54
