Frequency (Hz),Power (dB),44100.0000,2048,0,2.0000,0,L+R
0.00,-88.15
21.53,-86.51
43.07,-67.29
64.60,-60.80
86.13,-64.94
107.67,-40.17
129.20,-32.90
150.73,-37.67
172.27,-60.49
193.80,-53.85
215.33,-57.28
236.87,-37.75
258.40,-29.86
279.93,-34.15
301.46,-59.71
323.00,-61.74
344.53,-65.26
366.06,-54.78
387.60,-45.72
409.13,-48.92
430.66,-70.41
452.20,-73.38
473.73,-68.07
495.26,-47.75
516.80,-37.44
538.33,-39.62
559.86,-58.22
581.40,-63.07
602.93,-60.41
624.46,-42.44
646.00,-31.03
667.53,-32.51
689.06,-49.16
710.60,-62.60
732.13,-65.49
753.66,-59.00
775.20,-46.27
796.73,-46.81
818.26,-61.58
839.79,-64.16
861.33,-63.22
882.86,-49.47
904.39,-35.25
925.93,-35.01
947.46,-48.38
968.99,-63.61
990.53,-65.18
1012.06,-61.19
1033.59,-45.64
1055.13,-44.47
1076.66,-56.19
1098.19,-72.99
1119.73,-74.09
1141.26,-65.57
1162.79,-49.16
1184.33,-47.52
1205.86,-58.38
1227.39,-77.84
1248.93,-81.51
1270.46,-72.52
1291.99,-54.08
1313.53,-51.81
1335.06,-61.74
1356.59,-73.46
1378.13,-70.02
1399.66,-63.46
1421.19,-40.72
1442.72,-36.97
1464.26,-45.25
1485.79,-68.69
1507.32,-69.24
1528.86,-72.44
1550.39,-50.80
1571.92,-46.34
1593.46,-53.61
1614.99,-69.16
1636.52,-64.55
1658.06,-69.08
1679.59,-47.67
1701.12,-42.05
1722.66,-47.99
1744.19,-67.52
1765.72,-63.07
1787.26,-67.44
1808.79,-47.83
1830.32,-41.58
1851.86,-47.13
1873.39,-74.32
1894.92,-75.26
1916.46,-77.05
1937.99,-56.50
1959.52,-49.24
1981.05,-53.69
2002.59,-75.80
2024.12,-77.99
2045.65,-80.49
2067.19,-60.57
2088.72,-52.75
2110.25,-56.66
2131.79,-78.46
2153.32,-89.17
2174.85,-81.27
2196.39,-59.39
2217.92,-50.02
2239.45,-52.67
2260.99,-69.87
2282.52,-67.68
2304.05,-69.32
2325.59,-57.68
2347.12,-46.97
2368.65,-48.69
2390.19,-64.71
2411.72,-68.69
2433.25,-69.71
2454.79,-61.04
2476.32,-49.08
2497.85,-49.94
2519.38,-64.94
2540.92,-69.08
2562.45,-69.47
2583.98,-63.77
2605.52,-50.80
2627.05,-50.88
2648.58,-63.93
2670.12,-70.26
2691.65,-70.02
2713.18,-67.68
2734.72,-54.16
2756.25,-53.61
2777.78,-65.72
2799.32,-79.48
2820.85,-79.87
2842.38,-73.23
2863.92,-58.53
2885.45,-57.36
2906.98,-68.77
2928.52,-85.57
2950.05,-86.04
2971.58,-78.23
2993.12,-62.91
3014.65,-61.27
3036.18,-71.43
3057.71,-89.64
3079.25,-90.89
3100.78,-77.45
3122.31,-59.24
3143.85,-56.27
3165.38,-65.33
3186.91,-84.56
3208.45,-86.04
3229.98,-83.31
3251.51,-64.71
3273.05,-60.96
3294.58,-68.62
3316.11,-85.03
3337.65,-82.45
3359.18,-85.10
3380.71,-63.61
3402.25,-58.38
3423.78,-64.86
3445.31,-83.07
3466.85,-80.18
3488.38,-84.71
3509.91,-66.58
3531.45,-61.19
3552.98,-67.29
3574.51,-87.68
3596.04,-84.24
3617.58,-86.98
3639.11,-69.79
3660.64,-63.61
3682.18,-68.85
3703.71,-88.54
3725.24,-87.60
3746.78,-88.23
3768.31,-69.55
3789.84,-62.52
3811.38,-66.90
3832.91,-86.67
3854.44,-99.01
3875.98,-94.87
3897.51,-75.41
3919.04,-67.13
3940.58,-70.18
3962.11,-87.29
3983.64,-89.01
4005.18,-87.84
4026.71,-70.49
4048.24,-61.35
4069.78,-63.85
4091.31,-80.57
4112.84,-82.99
4134.38,-84.87
4155.91,-78.77
4177.44,-68.22
4198.97,-69.63
4220.51,-83.85
4242.04,-86.28
4263.57,-85.89
4285.11,-75.26
4306.64,-63.85
4328.17,-64.47
4349.71,-77.99
4371.24,-84.40
4392.77,-84.63
4414.31,-81.35
4435.84,-69.24
4457.37,-69.47
4478.91,-82.21
4500.44,-89.40
4521.97,-88.78
4543.51,-84.56
4565.04,-71.35
4586.57,-70.41
4608.11,-81.27
4629.64,-96.75
4651.17,-97.29
4672.71,-85.03
4694.24,-70.96
4715.77,-69.87
4737.30,-80.88
4758.84,-96.51
4780.37,-98.39
4801.90,-90.89
4823.44,-75.96
4844.97,-74.32
4866.50,-84.56
4888.04,-93.78
4909.57,-91.28
4931.10,-87.06
4952.64,-70.88
4974.17,-68.07
4995.70,-76.74
5017.24,-90.65
5038.77,-88.54
5060.30,-91.90
5081.84,-75.73
5103.37,-71.74
5124.90,-79.48
5146.44,-91.43
5167.97,-86.82
5189.50,-88.93
5211.04,-71.27
5232.57,-66.35
5254.10,-72.84
5275.63,-91.28
5297.17,-88.00
5318.70,-91.12
5340.23,-78.23
5361.77,-73.30
5383.30,-79.16
5404.83,-96.36
5426.37,-93.47
5447.90,-95.03
5469.43,-79.40
5490.97,-73.46
5512.50,-78.70
5534.03,-98.23
5555.57,-105.11
5577.10,-101.20
5598.63,-82.37
5620.17,-75.88
5641.70,-80.42
5663.23,-97.53
5684.77,-98.23
5706.30,-98.47
5727.83,-83.38
5749.37,-75.80
5770.90,-79.32
5792.43,-96.67
5813.96,-92.61
5835.50,-93.15
5857.03,-82.21
5878.56,-72.52
5900.10,-74.40
5921.63,-89.95
5943.16,-94.17
5964.70,-94.72
5986.23,-87.53
6007.76,-78.70
6029.30,-80.88
6050.83,-95.18
6072.36,-94.25
6093.90,-93.78
6115.43,-85.10
6136.96,-75.49
6158.50,-77.29
6180.03,-91.90
6201.56,-102.61
6223.10,-102.37
6244.63,-91.28
6266.16,-80.96
6287.70,-82.45
6309.23,-96.20
6330.76,-106.12
6352.29,-105.81
6373.83,-94.25
6395.36,-82.06
6416.89,-81.90
6438.43,-93.47
6459.96,-106.36
6481.49,-104.87
6503.03,-93.00
6524.56,-80.88
6546.09,-80.49
6567.63,-91.20
6589.16,-99.09
6610.69,-97.22
6632.23,-93.31
6653.76,-78.62
6675.29,-76.43
6696.83,-85.89
6718.36,-96.75
6739.89,-92.92
6761.43,-93.54
6782.96,-78.77
6804.49,-75.34
6826.03,-83.38
6847.56,-96.36
6869.09,-93.70
6890.63,-97.22
6912.16,-82.21
6933.69,-77.76
6955.22,-84.56
6976.76,-96.12
6998.29,-91.90
7019.82,-95.11
7041.36,-81.67
7062.89,-76.51
7084.42,-82.60
7105.96,-101.12
7127.49,-100.26
7149.02,-101.05
7170.56,-87.14
7192.09,-82.76
7213.62,-88.93
7235.16,-105.73
7256.69,-107.14
7278.22,-103.94
7299.76,-86.35
7321.29,-80.81
7342.82,-85.96
7364.36,-102.14
7385.89,-101.28
7407.42,-101.20
7428.96,-85.65
7450.49,-78.31
7472.02,-82.13
7493.55,-96.90
7515.09,-91.51
7536.62,-93.07
7558.15,-86.12
7579.69,-77.68
7601.22,-80.34
7622.75,-94.32
7644.29,-92.37
7665.82,-93.54
7687.35,-87.60
7708.89,-77.68
7730.42,-79.32
7751.95,-93.93
7773.49,-94.95
7795.02,-94.95
7816.55,-89.09
7838.09,-79.24
7859.62,-80.81
7881.15,-93.93
7902.69,-94.95
7924.22,-94.48
7945.75,-95.73
7967.29,-84.87
7988.82,-85.10
8010.35,-97.61
8031.88,-106.83
8053.42,-104.72
8074.95,-95.03
8096.48,-85.57
8118.02,-87.21
8139.55,-100.03
8161.08,-106.75
8182.62,-106.36
8204.15,-99.64
8225.68,-87.37
8247.22,-86.59
8268.75,-97.53
8290.28,-105.50
8311.82,-102.37
8333.35,-95.65
8354.88,-82.68
8376.42,-81.27
8397.95,-91.20
8419.48,-100.34
8441.02,-97.22
8462.55,-100.50
8484.08,-88.39
8505.62,-85.42
8527.15,-93.54
8548.68,-103.94
8570.21,-100.58
8591.75,-100.34
8613.28,-87.06
8634.81,-84.24
8656.35,-92.37
8677.88,-106.75
8699.41,-103.31
8720.95,-101.90
8742.48,-89.32
8764.01,-87.14
8785.55,-95.42
8807.08,-109.48
8828.61,-108.70
8850.15,-106.67
8871.68,-93.62
8893.21,-91.04
8914.75,-98.86
8936.28,-114.41
8957.81,-114.49
8979.35,-107.77
9000.88,-92.14
9022.41,-88.31
9043.95,-95.03
9065.48,-109.33
9087.01,-110.11
9108.54,-110.81
9130.08,-96.83
9151.61,-92.37
9173.14,-98.47
9194.68,-110.74
9216.21,-106.75
9237.74,-105.81
9259.28,-92.53
9280.81,-85.96
9302.34,-89.71
9323.88,-103.86
9345.41,-100.42
9366.94,-102.06
9388.48,-97.76
9410.01,-89.48
9431.54,-91.82
9453.08,-104.95
9474.61,-100.11
9496.14,-100.11
9517.68,-93.54
9539.21,-84.95
9560.74,-87.14
9582.28,-100.89
9603.81,-101.36
9625.34,-101.36
9646.88,-95.89
9668.41,-87.14
9689.94,-89.01
9711.47,-103.16
9733.01,-106.59
9754.54,-105.81
9776.07,-101.05
9797.61,-93.54
9819.14,-96.51
9840.67,-110.34
9862.21,-113.31
9883.74,-110.50
9905.27,-99.48
9926.81,-88.70
9948.34,-88.78
9969.87,-100.26
9991.41,-103.23
10012.94,-101.12
10034.47,-101.83
10056.01,-89.71
10077.54,-88.23
10099.07,-98.08
10120.61,-98.94
10142.14,-95.73
10163.67,-97.61
10185.21,-84.40
10206.74,-81.67
10228.27,-90.18
10249.80,-97.29
10271.34,-93.70
10292.87,-98.78
10314.40,-89.09
10335.94,-85.81
10357.47,-93.70
10379.00,-99.64
10400.54,-95.18
10422.07,-99.09
10443.60,-87.21
10465.14,-82.92
10486.67,-89.79
10508.20,-102.92
10529.74,-98.08
10551.27,-102.06
10572.80,-95.18
10594.34,-91.12
10615.87,-97.76
10637.40,-112.45
10658.94,-108.55
10680.47,-108.86
10702.00,-96.43
10723.54,-92.92
10745.07,-100.03
10766.60,-110.03
10788.13,-103.08
10809.67,-104.01
10831.20,-92.21
10852.73,-85.65
10874.27,-90.03
10895.80,-103.62
10917.33,-97.06
10938.87,-99.01
10960.40,-92.92
10981.93,-85.26
11003.47,-88.54
11025.00,-100.50
11046.53,-93.00
11068.07,-94.40
11089.60,-90.34
11111.13,-81.20
11132.67,-83.54
11154.20,-98.86
11175.73,-96.20
11197.27,-97.14
11218.80,-96.20
11240.33,-86.59
11261.87,-88.39
11283.40,-102.30
11304.93,-95.81
11326.46,-95.97
11348.00,-96.43
11369.53,-86.51
11391.06,-87.60
11412.60,-101.44
11434.13,-103.94
11455.66,-103.55
11477.20,-104.41
11498.73,-97.06
11520.26,-99.40
11541.80,-113.24
11563.33,-115.35
11584.86,-113.47
11606.40,-103.39
11627.93,-91.82
11649.46,-91.59
11671.00,-103.00
11692.53,-102.30
11714.06,-100.19
11735.60,-101.51
11757.13,-89.01
11778.66,-87.60
11800.20,-97.53
11821.73,-99.09
11843.26,-96.04
11864.79,-100.26
11886.33,-87.60
11907.86,-85.18
11929.39,-94.17
11950.93,-98.15
11972.46,-94.32
11993.99,-99.87
12015.53,-87.76
12037.06,-84.17
12058.59,-92.06
12080.13,-101.28
12101.66,-97.29
12123.19,-101.67
12144.73,-91.67
12166.26,-88.31
12187.79,-95.81
12209.33,-103.08
12230.86,-97.76
12252.39,-101.90
12273.93,-95.81
12295.46,-91.43
12316.99,-97.92
12338.53,-114.25
12360.06,-111.83
12381.59,-110.74
12403.13,-101.05
12424.66,-99.72
12446.19,-108.39
12467.72,-111.20
12489.26,-104.48
12510.79,-106.44
12532.32,-97.06
12553.86,-91.04
12575.39,-95.73
12596.92,-108.94
12618.46,-101.59
12639.99,-102.92
12661.52,-95.26
12683.06,-87.84
12704.59,-91.43
12726.12,-104.95
12747.66,-97.14
12769.19,-99.09
12790.72,-96.59
12812.26,-88.23
12833.79,-91.12
12855.32,-103.70
12876.86,-96.98
12898.39,-98.39
12919.92,-99.09
12941.46,-89.48
12962.99,-91.43
12984.52,-105.97
13006.05,-102.61
13027.59,-102.92
13049.12,-100.89
13070.65,-92.14
13092.19,-94.01
13113.72,-107.14
13135.25,-104.56
13156.79,-104.48
13178.32,-107.30
13199.85,-100.65
13221.39,-103.08
13242.92,-116.28
13264.45,-123.00
13285.99,-119.33
13307.52,-104.09
13329.05,-95.89
13350.59,-97.92
13372.12,-110.03
13393.65,-106.36
13415.19,-104.56
13436.72,-107.06
13458.25,-95.65
13479.79,-94.64
13501.32,-105.03
13522.85,-105.73
13544.38,-103.16
13565.92,-104.95
13587.45,-92.92
13608.98,-91.28
13630.52,-100.58
13652.05,-102.92
13673.58,-99.40
13695.12,-104.17
13716.65,-95.03
13738.18,-92.45
13759.72,-100.81
13781.25,-105.66
13802.78,-101.59
13824.32,-105.73
13845.85,-96.90
13867.38,-93.86
13888.92,-101.59
13910.45,-110.89
13931.98,-106.12
13953.52,-108.63
13975.05,-100.26
13996.58,-97.68
14018.12,-105.50
14039.65,-116.99
14061.18,-112.22
14082.71,-113.31
14104.25,-105.89
14125.78,-106.36
14147.31,-117.46
14168.85,-121.21
14190.38,-115.42
14211.91,-113.31
14233.45,-101.12
14254.98,-96.90
14276.51,-102.76
14298.05,-112.30
14319.58,-105.58
14341.11,-108.00
14362.65,-103.23
14384.18,-97.68
14405.71,-102.30
14427.25,-113.31
14448.78,-105.42
14470.31,-106.28
14491.85,-100.50
14513.38,-93.70
14534.91,-97.37
14556.45,-111.67
14577.98,-104.72
14599.51,-106.05
14621.04,-104.33
14642.58,-96.98
14664.11,-99.95
14685.64,-113.86
14707.18,-107.53
14728.71,-108.08
14750.24,-106.28
14771.78,-99.72
14793.31,-102.61
14814.84,-116.36
14836.38,-113.00
14857.91,-112.22
14879.44,-108.94
14900.98,-103.78
14922.51,-107.69
14944.04,-121.05
14965.58,-127.69
14987.11,-125.58
15008.64,-111.67
15030.18,-106.20
15051.71,-110.03
15073.24,-122.14
15094.78,-115.81
15116.31,-113.94
15137.84,-109.17
15159.38,-100.73
15180.91,-101.83
15202.44,-113.31
15223.97,-111.91
15245.51,-109.33
15267.04,-111.05
15288.57,-102.53
15310.11,-102.06
15331.64,-112.06
15353.17,-111.75
15374.71,-108.55
15396.24,-110.42
15417.77,-100.50
15439.31,-99.33
15460.84,-108.63
15482.37,-112.69
15503.91,-108.63
15525.44,-111.13
15546.97,-104.01
15568.51,-103.16
15590.04,-112.30
15611.57,-117.69
15633.11,-113.08
15654.64,-111.44
15676.17,-104.17
15697.71,-104.25
15719.24,-113.78
15740.77,-124.41
15762.30,-120.82
15783.84,-117.22
15805.37,-109.41
15826.90,-111.13
15848.44,-123.08
15869.97,-128.24
15891.50,-122.69
15913.04,-117.92
15934.57,-108.55
15956.10,-107.45
15977.64,-115.58
15999.17,-121.68
16020.70,-114.95
16042.24,-115.35
16063.77,-107.53
16085.30,-103.86
16106.84,-109.64
16128.37,-121.28
16149.90,-113.39
16171.44,-114.25
16192.97,-108.08
16214.50,-104.64
16236.04,-109.95
16257.57,-120.58
16279.10,-112.69
16300.63,-112.84
16322.17,-108.23
16343.70,-103.47
16365.23,-108.08
16386.77,-121.68
16408.30,-116.13
16429.83,-115.97
16451.37,-111.13
16472.90,-107.22
16494.43,-112.14
16515.97,-125.50
16537.50,-121.44
16559.03,-120.19
16580.57,-112.06
16602.10,-108.94
16623.63,-114.95
16645.17,-127.46
16666.70,-131.37
16688.23,-128.40
16709.77,-113.00
16731.30,-109.72
16752.83,-116.44
16774.37,-129.72
16795.90,-124.10
16817.43,-121.68
16838.96,-113.24
16860.50,-108.31
16882.03,-112.06
16903.56,-123.94
16925.10,-120.42
16946.63,-117.77
16968.16,-112.84
16989.70,-107.53
17011.23,-109.88
17032.76,-120.42
17054.30,-119.64
17075.83,-116.36
17097.36,-112.06
17118.90,-106.98
17140.43,-109.56
17161.96,-120.50
17183.50,-121.60
17205.03,-117.92
17226.56,-115.74
17248.10,-109.41
17269.63,-110.19
17291.16,-119.80
17312.70,-125.82
17334.23,-121.91
17355.76,-116.60
17377.29,-110.58
17398.83,-113.55
17420.36,-125.43
17441.89,-131.52
17463.43,-127.54
17484.96,-119.64
17506.49,-111.99
17528.03,-114.88
17549.56,-127.22
17571.09,-134.26
17592.63,-129.96
17614.16,-120.58
17635.69,-112.14
17657.23,-113.78
17678.76,-124.57
17700.29,-128.47
17721.83,-122.93
17743.36,-118.86
17764.89,-110.97
17786.43,-111.75
17807.96,-120.66
17829.49,-128.32
17851.03,-121.36
17872.56,-118.86
17894.09,-111.59
17915.63,-110.89
17937.16,-118.39
17958.69,-128.55
17980.22,-121.99
18001.76,-119.25
18023.29,-111.52
18044.82,-111.13
18066.36,-118.86
18087.89,-129.02
18109.42,-123.24
18130.96,-120.58
18152.49,-113.24
18174.02,-112.61
18195.56,-120.35
18217.09,-131.99
18238.62,-128.47
18260.16,-125.66
18281.69,-114.17
18303.22,-113.31
18324.76,-122.46
18346.29,-134.65
18367.82,-134.65
18389.36,-130.19
18410.89,-117.06
18432.42,-115.19
18453.96,-123.08
18475.49,-134.26
18497.02,-131.52
18518.55,-128.08
18540.09,-115.42
18561.62,-112.92
18583.15,-119.80
18604.69,-131.52
18626.22,-127.38
18647.75,-124.64
18669.29,-115.74
18690.82,-112.38
18712.35,-117.69
18733.89,-128.47
18755.42,-127.69
18776.95,-124.41
18798.49,-116.60
18820.02,-112.69
18841.55,-117.30
18863.09,-128.40
18884.62,-128.00
18906.15,-124.96
18927.69,-117.14
18949.22,-112.84
18970.75,-118.08
18992.29,-129.88
19013.82,-131.91
19035.35,-128.00
19056.88,-119.64
19078.42,-114.56
19099.95,-119.72
19121.48,-132.30
19143.02,-136.91
19164.55,-133.32
19186.08,-120.74
19207.62,-115.03
19229.15,-119.72
19250.68,-132.46
19272.22,-138.40
19293.75,-134.49
19315.28,-121.13
19336.82,-114.17
19358.35,-118.16
19379.88,-131.60
19401.42,-136.29
19422.95,-131.91
19444.48,-124.10
19466.02,-116.75
19487.55,-118.71
19509.08,-127.77
19530.62,-133.71
19552.15,-128.71
19573.68,-122.46
19595.21,-114.95
19616.75,-116.99
19638.28,-127.30
19659.81,-133.08
19681.35,-127.61
19702.88,-123.00
19724.41,-115.11
19745.95,-116.75
19767.48,-126.91
19789.01,-134.57
19810.55,-130.51
19832.08,-125.27
19853.61,-117.06
19875.15,-118.32
19896.68,-128.71
19918.21,-136.99
19939.75,-134.02
19961.28,-127.15
19982.81,-116.99
20004.35,-117.61
20025.88,-129.26
20047.41,-138.48
20068.95,-136.60
20090.48,-131.52
20112.01,-119.33
20133.54,-118.63
20155.08,-128.55
20176.61,-136.52
20198.14,-135.82
20219.68,-131.29
20241.21,-119.33
20262.74,-118.08
20284.28,-126.36
20305.81,-135.66
20327.34,-132.62
20348.88,-129.96
20370.41,-118.55
20391.94,-116.83
20413.48,-124.41
20435.01,-133.08
20456.54,-131.99
20478.08,-130.43
20499.61,-120.19
20521.14,-117.77
20542.68,-125.19
20564.21,-134.10
20585.74,-132.54
20607.28,-130.27
20628.81,-119.96
20650.34,-117.30
20671.88,-124.57
20693.41,-133.87
20714.94,-133.01
20736.47,-133.16
20758.01,-123.24
20779.54,-119.49
20801.07,-125.89
20822.61,-133.79
20844.14,-132.30
20865.67,-135.90
20887.21,-125.43
20908.74,-120.66
20930.27,-126.68
20951.81,-135.74
20973.34,-132.07
20994.87,-135.43
21016.41,-127.69
21037.94,-122.22
21059.47,-126.60
21081.01,-134.33
21102.54,-130.11
21124.07,-133.16
21145.61,-126.68
21167.14,-120.42
21188.67,-124.64
21210.21,-133.01
21231.74,-130.35
21253.27,-131.37
21274.80,-126.60
21296.34,-120.27
21317.87,-123.79
21339.40,-131.76
21360.94,-128.16
21382.47,-130.27
21404.00,-127.38
21425.54,-120.35
21447.07,-123.71
21468.60,-132.93
21490.14,-129.10
21511.67,-131.29
21533.20,-130.58
21554.74,-122.85
21576.27,-125.27
21597.80,-132.85
21619.34,-128.32
21640.87,-130.51
21662.40,-131.83
21683.94,-123.63
21705.47,-125.43
21727.00,-133.08
21748.54,-125.74
21770.07,-127.22
21791.60,-133.94
21813.13,-126.44
21834.67,-127.07
21856.20,-133.08
21877.73,-125.50
21899.27,-126.60
21920.80,-134.18
21942.33,-125.50
21963.87,-126.21
21985.40,-132.77
22006.93,-126.05
22028.47,-126.44
22050.00,-134.10
