Frequency (Hz),Power (dB),44100.0000,2048,0,2.0000,0,L+R
0.00,-76.74
21.53,-74.63
43.07,-68.77
64.60,-65.88
86.13,-63.46
107.67,-40.33
129.20,-33.29
150.73,-38.30
172.27,-64.79
193.80,-66.97
215.33,-60.25
236.87,-36.42
258.40,-28.29
279.93,-32.20
301.46,-56.19
323.00,-64.71
344.53,-58.53
366.06,-37.28
387.60,-27.82
409.13,-30.72
430.66,-50.88
452.20,-62.91
473.73,-58.14
495.26,-39.55
516.80,-28.61
538.33,-30.40
559.86,-47.83
581.40,-60.96
602.93,-57.28
624.46,-40.17
646.00,-27.67
667.53,-28.53
689.06,-43.84
710.60,-59.08
732.13,-58.85
753.66,-42.67
775.20,-28.37
796.73,-28.14
818.26,-41.50
839.79,-58.14
861.33,-61.43
882.86,-47.20
904.39,-30.79
925.93,-29.54
947.46,-41.26
968.99,-59.63
990.53,-67.05
1012.06,-60.49
1033.59,-41.42
1055.13,-38.61
1076.66,-48.30
1098.19,-69.24
1119.73,-75.49
1141.26,-66.51
1162.79,-43.06
1184.33,-38.69
1205.86,-46.19
1227.39,-70.80
1248.93,-77.76
1270.46,-71.12
1291.99,-40.33
1313.53,-34.15
1335.06,-39.86
1356.59,-70.96
1378.13,-74.63
1399.66,-67.13
1421.19,-42.83
1442.72,-34.78
1464.26,-38.69
1485.79,-61.89
1507.32,-72.05
1528.86,-67.99
1550.39,-48.53
1571.92,-38.06
1593.46,-40.17
1614.99,-57.83
1636.52,-70.65
1658.06,-71.98
1679.59,-56.35
1701.12,-43.30
1722.66,-43.37
1744.19,-57.21
1765.72,-72.84
1787.26,-78.38
1808.79,-66.97
1830.32,-52.99
1851.86,-51.97
1873.39,-63.38
1894.92,-80.88
1916.46,-85.57
1937.99,-75.57
1959.52,-63.69
1981.05,-63.46
2002.59,-73.30
2024.12,-85.81
2045.65,-89.64
2067.19,-80.88
2088.72,-66.66
2110.25,-63.54
2131.79,-69.47
2153.32,-82.68
2174.85,-86.51
2196.39,-81.82
2217.92,-68.62
2239.45,-63.46
2260.99,-66.66
2282.52,-79.79
2304.05,-87.53
2325.59,-82.21
2347.12,-68.15
2368.65,-57.60
2390.19,-58.14
2411.72,-71.58
2433.25,-85.10
2454.79,-83.46
2476.32,-71.27
2497.85,-55.33
2519.38,-51.11
2540.92,-58.61
2562.45,-80.81
2583.98,-84.48
2605.52,-75.34
2627.05,-58.93
2648.58,-50.25
2670.12,-53.53
2691.65,-74.01
2713.18,-83.31
2734.72,-79.40
2756.25,-71.04
2777.78,-63.30
2799.32,-64.16
2820.85,-76.51
2842.38,-85.26
2863.92,-80.96
2885.45,-73.15
2906.98,-62.75
2928.52,-59.08
2950.05,-66.90
2971.58,-84.17
2993.12,-84.17
3014.65,-75.34
3036.18,-60.33
3057.71,-51.97
3079.25,-55.57
3100.78,-76.04
3122.31,-85.34
3143.85,-77.99
3165.38,-67.29
3186.91,-52.60
3208.45,-51.66
3229.98,-63.46
3251.51,-80.34
3273.05,-81.59
3294.58,-80.10
3316.11,-61.04
3337.65,-55.33
3359.18,-61.27
3380.71,-86.04
3402.25,-84.32
3423.78,-82.13
3445.31,-74.09
3466.85,-61.97
3488.38,-62.36
3509.91,-76.20
3531.45,-85.34
3552.98,-83.62
3574.51,-83.07
3596.04,-68.15
3617.58,-63.22
3639.11,-69.79
3660.64,-87.45
3682.18,-85.18
3703.71,-84.24
3725.24,-79.32
3746.78,-76.43
3768.31,-78.85
3789.84,-89.56
3811.38,-87.68
3832.91,-86.12
3854.44,-81.20
3875.98,-72.68
3897.51,-67.37
3919.04,-73.69
3940.58,-88.00
3962.11,-87.21
3983.64,-84.24
4005.18,-74.40
4026.71,-62.13
4048.24,-62.21
4069.78,-74.87
4091.31,-88.00
4112.84,-88.39
4134.38,-86.90
4155.91,-72.37
4177.44,-65.65
4198.97,-70.26
4220.51,-87.53
4242.04,-91.90
4263.57,-90.34
4285.11,-88.70
4306.64,-74.24
4328.17,-71.51
4349.71,-80.49
4371.24,-92.06
4392.77,-95.89
4414.31,-98.15
4435.84,-97.37
4457.37,-90.89
4478.91,-91.82
4500.44,-94.79
4521.97,-95.58
4543.51,-98.00
4565.04,-100.26
4586.57,-90.34
4608.11,-84.79
4629.64,-87.92
4651.17,-93.23
4672.71,-96.12
4694.24,-98.54
4715.77,-90.42
4737.30,-81.90
4758.84,-80.88
4780.37,-89.79
4801.90,-92.37
4823.44,-93.70
4844.97,-90.57
4866.50,-84.56
4888.04,-71.12
4909.57,-70.57
4931.10,-81.04
4952.64,-88.46
4974.17,-94.17
4995.70,-94.32
5017.24,-81.35
5038.77,-74.63
5060.30,-73.07
5081.84,-80.42
5103.37,-94.01
5124.90,-96.83
5146.44,-89.64
5167.97,-73.85
5189.50,-65.10
5211.04,-67.91
5232.57,-84.95
5254.10,-92.14
5275.63,-94.72
5297.17,-92.06
5318.70,-71.90
5340.23,-65.33
5361.77,-70.26
5383.30,-90.50
5404.83,-94.40
5426.37,-93.62
5447.90,-89.48
5469.43,-77.60
5490.97,-72.68
5512.50,-78.77
5534.03,-94.09
5555.57,-94.40
5577.10,-93.62
5598.63,-90.96
5620.17,-76.20
5641.70,-71.19
5663.23,-77.37
5684.77,-92.37
5706.30,-95.11
5727.83,-94.40
5749.37,-90.26
5770.90,-74.09
5792.43,-69.40
5813.96,-75.65
5835.50,-92.61
5857.03,-98.15
5878.56,-96.36
5900.10,-91.98
5921.63,-73.30
5943.16,-67.83
5964.70,-73.54
5986.23,-93.23
6007.76,-98.08
6029.30,-97.37
6050.83,-91.90
6072.36,-75.26
6093.90,-69.87
6115.43,-75.34
6136.96,-94.87
6158.50,-99.01
6180.03,-100.34
6201.56,-96.67
6223.10,-82.13
6244.63,-74.48
6266.16,-77.91
6287.70,-94.72
6309.23,-100.65
6330.76,-100.26
6352.29,-100.34
6373.83,-97.68
6395.36,-90.03
6416.89,-91.67
6438.43,-102.45
6459.96,-106.20
6481.49,-105.58
6503.03,-104.64
6524.56,-102.61
6546.09,-94.64
6567.63,-94.95
6589.16,-104.09
6610.69,-109.09
6632.23,-107.61
6653.76,-107.30
6675.29,-104.80
6696.83,-92.76
6718.36,-90.96
6739.89,-99.64
6761.43,-109.41
6782.96,-112.61
6804.49,-115.89
6826.03,-116.13
6847.56,-111.05
6869.09,-106.98
6890.63,-109.95
6912.16,-112.69
6933.69,-114.33
6955.22,-118.47
6976.76,-116.91
6998.29,-113.70
7019.82,-109.48
7041.36,-110.89
7062.89,-114.64
7084.42,-115.89
7105.96,-113.24
7127.49,-112.22
7149.02,-105.26
7170.56,-92.53
7192.09,-89.25
7213.62,-96.36
7235.16,-110.34
7256.69,-113.70
7278.22,-113.86
7299.76,-111.83
7321.29,-104.41
7342.82,-101.28
7364.36,-100.89
7385.89,-102.76
7407.42,-109.64
7428.96,-107.92
7450.49,-107.22
7472.02,-103.78
7493.55,-95.81
7515.09,-93.54
7536.62,-99.79
7558.15,-109.02
7579.69,-105.66
7601.22,-105.89
7622.75,-102.53
7644.29,-95.26
7665.82,-82.45
7687.35,-81.27
7708.89,-90.81
7730.42,-103.62
7751.95,-102.30
7773.49,-104.01
7795.02,-100.42
7816.55,-87.45
7838.09,-82.45
7859.62,-87.29
7881.15,-99.79
7902.69,-104.64
7924.22,-107.53
7945.75,-103.47
7967.29,-97.37
7988.82,-81.90
8010.35,-79.01
8031.88,-86.74
8053.42,-100.81
8074.95,-103.39
8096.48,-104.80
8118.02,-107.14
8139.55,-95.42
8161.08,-86.67
8182.62,-88.31
8204.15,-100.65
8225.68,-106.83
8247.22,-108.63
8268.75,-108.47
8290.28,-108.39
8311.82,-96.83
8333.35,-89.48
8354.88,-92.45
8376.42,-106.12
8397.95,-111.13
8419.48,-110.50
8441.02,-108.47
8462.55,-104.64
8484.08,-93.31
8505.62,-89.56
8527.15,-95.50
8548.68,-107.61
8570.21,-111.59
8591.75,-110.34
8613.28,-107.45
8634.81,-101.05
8656.35,-89.01
8677.88,-84.95
8699.41,-90.81
8720.95,-104.01
8742.48,-107.77
8764.01,-111.99
8785.55,-110.42
8807.08,-101.83
8828.61,-92.84
8850.15,-91.59
8871.68,-99.09
8893.21,-107.53
8914.75,-111.52
8936.28,-113.70
8957.81,-113.47
8979.35,-106.59
9000.88,-95.34
9022.41,-92.21
9043.95,-98.39
9065.48,-109.88
9087.01,-112.84
9108.54,-115.35
9130.08,-115.50
9151.61,-116.44
9173.14,-116.44
9194.68,-114.17
9216.21,-115.27
9237.74,-118.16
9259.28,-120.03
9280.81,-121.05
9302.34,-121.68
9323.88,-119.10
9345.41,-112.14
9366.94,-108.16
9388.48,-111.91
9410.01,-118.71
9431.54,-121.60
9453.08,-119.96
9474.61,-119.96
9496.14,-120.82
9517.68,-118.78
9539.21,-120.03
9560.74,-121.68
9582.28,-121.28
9603.81,-121.83
9625.34,-124.02
9646.88,-125.11
9668.41,-122.46
9689.94,-120.97
9711.47,-117.30
9733.01,-117.53
9754.54,-117.69
9776.07,-114.80
9797.61,-109.25
9819.14,-109.25
9840.67,-110.11
9862.21,-108.00
9883.74,-108.39
9905.27,-111.13
9926.81,-111.59
9948.34,-112.84
9969.87,-112.61
9991.41,-115.11
10012.94,-118.63
10034.47,-119.17
10056.01,-116.75
10077.54,-116.44
10099.07,-120.27
10120.61,-124.25
10142.14,-124.33
10163.67,-124.49
10185.21,-123.63
10206.74,-123.79
10228.27,-121.13
10249.80,-114.56
10271.34,-115.19
10292.87,-120.74
10314.40,-120.89
10335.94,-119.72
10357.47,-117.61
10379.00,-111.91
10400.54,-109.33
10422.07,-101.98
10443.60,-101.83
10465.14,-109.95
10486.67,-115.74
10508.20,-118.24
10529.74,-120.66
10551.27,-118.39
10572.80,-116.67
10594.34,-104.80
10615.87,-98.15
10637.40,-100.97
10658.94,-112.77
10680.47,-116.99
10702.00,-120.58
10723.54,-121.21
10745.07,-117.06
10766.60,-114.10
10788.13,-104.87
10809.67,-103.78
10831.20,-110.58
10852.73,-118.94
10874.27,-122.22
10895.80,-124.02
10917.33,-125.50
10938.87,-125.11
10960.40,-121.91
10981.93,-116.13
11003.47,-115.97
11025.00,-122.30
11046.53,-125.35
11068.07,-123.55
11089.60,-124.02
11111.13,-120.97
11132.67,-115.50
11154.20,-111.36
11175.73,-109.17
11197.27,-112.06
11218.80,-119.49
11240.33,-121.91
11261.87,-123.16
11283.40,-121.52
11304.93,-116.91
11326.46,-111.91
11348.00,-105.42
11369.53,-102.45
11391.06,-107.06
11412.60,-115.35
11434.13,-119.88
11455.66,-122.22
11477.20,-121.28
11498.73,-115.97
11520.26,-113.08
11541.80,-106.36
11563.33,-104.95
11584.86,-109.95
11606.40,-117.53
11627.93,-122.30
11649.46,-122.77
11671.00,-121.68
11692.53,-123.32
11714.06,-122.53
11735.60,-114.17
11757.13,-112.84
11778.66,-117.92
11800.20,-123.39
11821.73,-124.80
11843.26,-124.88
11864.79,-125.58
11886.33,-126.29
11907.86,-126.29
11929.39,-122.07
11950.93,-121.52
11972.46,-124.41
11993.99,-126.91
12015.53,-128.47
12037.06,-128.47
12058.59,-127.38
12080.13,-126.60
12101.66,-122.38
12123.19,-118.78
12144.73,-119.80
12166.26,-124.33
12187.79,-127.54
12209.33,-128.79
12230.86,-128.55
12252.39,-127.30
12273.93,-125.89
12295.46,-125.97
12316.99,-125.89
12338.53,-127.22
12360.06,-129.10
12381.59,-130.51
12403.13,-131.05
12424.66,-129.72
12446.19,-129.72
12467.72,-128.94
12489.26,-129.57
12510.79,-127.69
12532.32,-126.44
12553.86,-128.86
12575.39,-130.04
12596.92,-129.96
12618.46,-131.76
12639.99,-131.83
12661.52,-131.68
12683.06,-130.74
12704.59,-130.82
12726.12,-130.90
12747.66,-129.96
12769.19,-129.96
12790.72,-130.43
12812.26,-131.76
12833.79,-131.60
12855.32,-130.97
12876.86,-131.52
12898.39,-130.58
12919.92,-128.32
12941.46,-129.49
12962.99,-130.43
12984.52,-129.57
13006.05,-129.88
13027.59,-130.04
13049.12,-129.33
13070.65,-129.18
13092.19,-126.21
13113.72,-120.58
13135.25,-119.41
13156.79,-123.63
13178.32,-128.40
13199.85,-128.86
13221.39,-129.10
13242.92,-129.65
13264.45,-128.79
13285.99,-127.61
13307.52,-123.08
13329.05,-122.07
13350.59,-125.66
13372.12,-128.86
13393.65,-130.35
13415.19,-131.60
13436.72,-130.82
13458.25,-130.74
13479.79,-130.43
13501.32,-127.15
13522.85,-123.47
13544.38,-124.18
13565.92,-128.94
13587.45,-131.13
13608.98,-130.74
13630.52,-130.43
13652.05,-131.13
13673.58,-130.51
13695.12,-128.24
13716.65,-126.68
13738.18,-126.29
13759.72,-128.47
13781.25,-130.51
13802.78,-131.60
13824.32,-127.38
13845.85,-126.05
13867.38,-129.57
13888.92,-128.86
13910.45,-125.27
13931.98,-119.33
13953.52,-118.16
13975.05,-123.00
13996.58,-128.00
14018.12,-128.94
14039.65,-128.16
14061.18,-129.57
14082.71,-130.90
14104.25,-131.29
14125.78,-125.89
14147.31,-123.39
14168.85,-124.72
14190.38,-127.61
14211.91,-129.49
14233.45,-128.47
14254.98,-128.24
14276.51,-129.02
14298.05,-128.55
14319.58,-127.46
14341.11,-124.80
14362.65,-122.46
14384.18,-124.10
14405.71,-128.71
14427.25,-129.96
14448.78,-130.43
14470.31,-130.04
14491.85,-130.11
14513.38,-130.58
14534.91,-130.11
14556.45,-130.51
14577.98,-130.90
14599.51,-130.43
14621.04,-131.21
14642.58,-131.83
14664.11,-131.13
14685.64,-130.90
14707.18,-131.52
14728.71,-130.27
14750.24,-127.30
14771.78,-124.64
14793.31,-122.85
14814.84,-125.19
14836.38,-129.10
14857.91,-130.19
14879.44,-130.35
14900.98,-130.35
14922.51,-129.72
14944.04,-128.32
14965.58,-126.36
14987.11,-122.61
15008.64,-118.71
15030.18,-116.28
15051.71,-119.80
15073.24,-126.68
15094.78,-126.83
15116.31,-126.75
15137.84,-128.71
15159.38,-129.80
15180.91,-131.91
15202.44,-128.40
15223.97,-126.83
15245.51,-129.02
15267.04,-130.43
15288.57,-130.51
15310.11,-129.96
15331.64,-130.19
15353.17,-130.27
15374.71,-130.19
15396.24,-130.19
15417.77,-130.04
15439.31,-129.33
15460.84,-129.18
15482.37,-129.80
15503.91,-131.37
15525.44,-131.37
15546.97,-130.35
15568.51,-129.26
15590.04,-130.51
15611.57,-131.60
15633.11,-131.60
15654.64,-131.68
15676.17,-131.99
15697.71,-131.76
15719.24,-131.76
15740.77,-132.62
15762.30,-131.99
15783.84,-131.52
15805.37,-132.30
15826.90,-131.76
15848.44,-131.05
15869.97,-129.96
15891.50,-130.74
15913.04,-131.60
15934.57,-132.62
15956.10,-133.47
15977.64,-133.01
15999.17,-132.62
16020.70,-131.91
16042.24,-132.77
16063.77,-133.63
16085.30,-132.85
16106.84,-132.77
16128.37,-133.24
16149.90,-133.16
16171.44,-133.01
16192.97,-132.93
16214.50,-132.93
16236.04,-133.87
16257.57,-133.94
16279.10,-133.71
16300.63,-132.77
16322.17,-132.85
16343.70,-132.77
16365.23,-132.93
16386.77,-133.24
16408.30,-133.08
16429.83,-131.52
16451.37,-132.69
16472.90,-132.30
16494.43,-132.15
16515.97,-132.85
16537.50,-132.46
16559.03,-132.85
16580.57,-132.77
16602.10,-132.69
16623.63,-132.54
16645.17,-132.93
16666.70,-132.85
16688.23,-132.93
16709.77,-133.16
16731.30,-133.01
16752.83,-132.54
16774.37,-133.01
16795.90,-132.22
16817.43,-133.40
16838.96,-132.93
16860.50,-132.54
16882.03,-133.24
16903.56,-132.69
16925.10,-132.54
16946.63,-133.08
16968.16,-133.08
16989.70,-133.16
17011.23,-133.24
17032.76,-133.40
17054.30,-133.94
17075.83,-132.93
17097.36,-133.08
17118.90,-133.55
17140.43,-133.08
17161.96,-133.24
17183.50,-133.55
17205.03,-132.85
17226.56,-133.16
17248.10,-133.94
17269.63,-132.77
17291.16,-132.30
17312.70,-133.79
17334.23,-134.65
17355.76,-133.55
17377.29,-133.40
17398.83,-133.32
17420.36,-133.63
17441.89,-133.79
17463.43,-133.24
17484.96,-133.24
17506.49,-133.63
17528.03,-133.71
17549.56,-133.71
17571.09,-133.47
17592.63,-133.87
17614.16,-134.02
17635.69,-134.57
17657.23,-134.33
17678.76,-133.08
17700.29,-132.38
17721.83,-132.54
17743.36,-132.46
17764.89,-132.85
17786.43,-132.69
17807.96,-133.01
17829.49,-133.79
17851.03,-133.47
17872.56,-132.38
17894.09,-132.62
17915.63,-132.85
17937.16,-132.77
17958.69,-132.69
17980.22,-132.93
18001.76,-133.24
18023.29,-132.54
18044.82,-133.08
18066.36,-133.71
18087.89,-133.08
18109.42,-133.47
18130.96,-133.94
18152.49,-133.47
18174.02,-133.08
18195.56,-133.87
18217.09,-133.40
18238.62,-133.24
18260.16,-133.79
18281.69,-133.40
18303.22,-133.16
18324.76,-134.18
18346.29,-133.94
18367.82,-133.47
18389.36,-133.16
18410.89,-134.10
18432.42,-134.33
18453.96,-133.79
18475.49,-133.55
18497.02,-134.49
18518.55,-134.18
18540.09,-133.08
18561.62,-133.32
18583.15,-134.41
18604.69,-133.47
18626.22,-132.38
18647.75,-132.69
18669.29,-131.99
18690.82,-131.29
18712.35,-130.51
18733.89,-129.80
18755.42,-130.04
18776.95,-128.86
18798.49,-127.77
18820.02,-126.60
18841.55,-125.89
18863.09,-125.74
18884.62,-125.04
18906.15,-123.16
18927.69,-123.08
18949.22,-122.61
18970.75,-121.21
18992.29,-120.42
19013.82,-121.05
19035.35,-121.60
19056.88,-119.96
19078.42,-119.96
19099.95,-120.74
19121.48,-120.82
19143.02,-119.33
19164.55,-119.49
19186.08,-120.82
19207.62,-121.44
19229.15,-120.74
19250.68,-119.96
19272.22,-120.58
19293.75,-122.07
19315.28,-120.89
19336.82,-120.82
19358.35,-121.83
19379.88,-122.77
19401.42,-121.83
19422.95,-122.22
19444.48,-122.53
19466.02,-121.91
19487.55,-122.38
19509.08,-123.00
19530.62,-123.55
19552.15,-123.55
19573.68,-124.10
19595.21,-125.50
19616.75,-125.97
19638.28,-127.30
19659.81,-127.46
19681.35,-127.15
19702.88,-128.55
19724.41,-129.41
19745.95,-130.11
19767.48,-129.72
19789.01,-128.86
19810.55,-129.26
19832.08,-129.10
19853.61,-129.80
19875.15,-130.58
19896.68,-130.74
19918.21,-130.35
19939.75,-131.37
19961.28,-132.22
19982.81,-132.07
20004.35,-131.76
20025.88,-132.07
20047.41,-131.91
20068.95,-131.76
20090.48,-131.37
20112.01,-130.51
20133.54,-129.96
20155.08,-130.51
20176.61,-129.57
20198.14,-129.80
20219.68,-129.26
20241.21,-129.49
20262.74,-129.57
20284.28,-128.40
20305.81,-128.47
20327.34,-129.88
20348.88,-129.02
20370.41,-128.71
20391.94,-128.86
20413.48,-128.94
20435.01,-128.00
20456.54,-127.93
20478.08,-128.16
20499.61,-127.46
20521.14,-126.44
20542.68,-126.83
20564.21,-127.93
20585.74,-128.40
20607.28,-127.54
20628.81,-126.91
20650.34,-126.68
20671.88,-125.89
20693.41,-125.04
20714.94,-125.82
20736.47,-125.89
20758.01,-124.96
20779.54,-124.02
20801.07,-124.80
20822.61,-125.43
20844.14,-124.41
20865.67,-123.94
20887.21,-126.05
20908.74,-125.82
20930.27,-124.57
20951.81,-123.86
20973.34,-125.35
20994.87,-126.13
21016.41,-126.13
21037.94,-125.74
21059.47,-125.74
21081.01,-126.05
21102.54,-126.36
21124.07,-126.21
21145.61,-127.22
21167.14,-127.22
21188.67,-126.36
21210.21,-125.89
21231.74,-126.13
21253.27,-126.05
21274.80,-127.38
21296.34,-128.16
21317.87,-126.52
21339.40,-127.77
21360.94,-129.02
21382.47,-129.10
21404.00,-130.04
21425.54,-130.43
21447.07,-130.35
21468.60,-131.29
21490.14,-131.44
21511.67,-130.35
21533.20,-130.35
21554.74,-131.13
21576.27,-130.04
21597.80,-130.27
21619.34,-131.05
21640.87,-130.82
21662.40,-130.04
21683.94,-130.04
21705.47,-130.35
21727.00,-130.04
21748.54,-129.65
21770.07,-129.33
21791.60,-128.40
21813.13,-127.69
21834.67,-126.36
21856.20,-126.75
21877.73,-126.36
21899.27,-125.89
21920.80,-124.80
21942.33,-124.80
21963.87,-124.64
21985.40,-125.35
22006.93,-124.41
22028.47,-124.88
22050.00,-125.11
