Frequency (Hz),Power (dB),44100.0000,2048,0,2.0000,0,L+R
0.00,-51.11
21.53,-57.13
43.07,-79.40
64.60,-71.66
86.13,-60.10
107.67,-27.90
129.20,-20.87
150.73,-25.95
172.27,-57.75
193.80,-69.94
215.33,-66.11
236.87,-39.78
258.40,-31.73
279.93,-35.79
301.46,-61.43
323.00,-73.46
344.53,-66.43
366.06,-43.37
387.60,-34.23
409.13,-37.44
430.66,-59.24
452.20,-71.90
473.73,-64.79
495.26,-44.00
516.80,-33.68
538.33,-36.03
559.86,-55.10
581.40,-69.55
602.93,-78.07
624.46,-66.90
646.00,-55.41
667.53,-56.82
689.06,-73.69
710.60,-77.60
732.13,-67.99
753.66,-50.33
775.20,-37.36
796.73,-37.90
818.26,-52.99
839.79,-69.16
861.33,-75.34
882.86,-59.94
904.39,-45.48
925.93,-45.17
947.46,-58.61
968.99,-75.65
990.53,-75.18
1012.06,-59.79
1033.59,-43.61
1055.13,-42.44
1076.66,-54.47
1098.19,-72.99
1119.73,-75.88
1141.26,-61.58
1162.79,-43.22
1184.33,-41.19
1205.86,-51.97
1227.39,-72.13
1248.93,-82.21
1270.46,-78.46
1291.99,-57.83
1313.53,-54.86
1335.06,-64.47
1356.59,-86.28
1378.13,-82.68
1399.66,-69.47
1421.19,-45.33
1442.72,-41.50
1464.26,-49.94
1485.79,-75.02
1507.32,-85.96
1528.86,-84.17
1550.39,-55.17
1571.92,-50.41
1593.46,-57.83
1614.99,-87.60
1636.52,-98.54
1658.06,-91.82
1679.59,-50.64
1701.12,-44.94
1722.66,-51.35
1744.19,-92.68
1765.72,-98.47
1787.26,-87.45
1808.79,-51.66
1830.32,-45.02
1851.86,-50.41
1873.39,-85.89
1894.92,-97.22
1916.46,-90.42
1937.99,-62.44
1959.52,-54.78
1981.05,-59.16
2002.59,-86.28
2024.12,-88.39
2045.65,-77.60
2067.19,-53.53
2088.72,-44.70
2110.25,-48.30
2131.79,-71.19
2153.32,-84.63
2174.85,-87.29
2196.39,-66.19
2217.92,-56.27
2239.45,-58.93
2260.99,-78.85
2282.52,-88.00
2304.05,-78.62
2325.59,-59.00
2347.12,-47.83
2368.65,-49.55
2390.19,-67.21
2411.72,-81.90
2433.25,-79.79
2454.79,-61.82
2476.32,-49.31
2497.85,-50.17
2519.38,-65.88
2540.92,-81.67
2562.45,-86.28
2583.98,-70.18
2605.52,-56.19
2627.05,-56.19
2648.58,-70.18
2670.12,-86.12
2691.65,-80.34
2713.18,-64.47
2734.72,-48.84
2756.25,-47.99
2777.78,-60.49
2799.32,-78.62
2820.85,-88.15
2842.38,-81.43
2863.92,-63.93
2885.45,-62.21
2906.98,-73.30
2928.52,-91.67
2950.05,-85.89
2971.58,-71.74
2993.12,-51.81
3014.65,-49.24
3036.18,-59.16
3057.71,-80.65
3079.25,-89.25
3100.78,-77.68
3122.31,-54.78
3143.85,-51.27
3165.38,-60.10
3186.91,-84.09
3208.45,-94.32
3229.98,-86.51
3251.51,-59.39
3273.05,-54.94
3294.58,-62.68
3316.11,-90.57
3337.65,-99.95
3359.18,-89.56
3380.71,-54.32
3402.25,-48.92
3423.78,-55.64
3445.31,-91.12
3466.85,-102.84
3488.38,-110.27
3509.91,-75.88
3531.45,-69.55
3552.98,-75.26
3574.51,-106.36
3596.04,-98.78
3617.58,-87.37
3639.11,-57.44
3660.64,-50.10
3682.18,-54.86
3703.71,-84.24
3725.24,-95.58
3746.78,-87.45
3768.31,-62.29
3789.84,-53.85
3811.38,-57.68
3832.91,-81.90
3854.44,-94.09
3875.98,-87.14
3897.51,-64.94
3919.04,-55.41
3940.58,-58.30
3962.11,-79.16
3983.64,-90.81
4005.18,-82.13
4026.71,-61.97
4048.24,-51.27
4069.78,-53.30
4091.31,-71.66
4112.84,-86.35
4134.38,-95.26
4155.91,-101.44
4177.44,-96.43
4198.97,-97.22
4220.51,-99.72
4242.04,-92.84
4263.57,-83.23
4285.11,-65.96
4306.64,-52.52
4328.17,-52.75
4349.71,-67.29
4371.24,-83.78
4392.77,-88.46
4414.31,-72.99
4435.84,-57.91
4457.37,-57.36
4478.91,-70.41
4500.44,-87.84
4521.97,-89.40
4543.51,-74.40
4565.04,-57.52
4586.57,-56.11
4608.11,-67.76
4629.64,-86.67
4651.17,-88.39
4672.71,-74.16
4694.24,-55.10
4715.77,-52.83
4737.30,-63.15
4758.84,-83.93
4780.37,-94.32
4801.90,-96.20
4823.44,-75.10
4844.97,-71.90
4866.50,-81.12
4888.04,-101.90
4909.57,-95.11
4931.10,-81.98
4952.64,-56.50
4974.17,-52.36
4995.70,-60.49
5017.24,-86.82
5038.77,-97.76
5060.30,-95.34
5081.84,-63.93
5103.37,-58.85
5124.90,-65.88
5146.44,-97.92
5167.97,-109.48
5189.50,-116.99
5211.04,-61.58
5232.57,-55.57
5254.10,-61.58
5275.63,-112.53
5297.17,-104.87
5318.70,-93.31
5340.23,-60.88
5361.77,-53.85
5383.30,-58.93
5404.83,-90.96
5426.37,-103.23
5447.90,-101.90
5469.43,-75.57
5490.97,-67.52
5512.50,-71.66
5534.03,-96.98
5555.57,-96.43
5577.10,-85.73
5598.63,-62.52
5620.17,-53.38
5641.70,-56.66
5663.23,-78.54
5684.77,-92.14
5706.30,-93.15
5727.83,-72.60
5749.37,-62.29
5770.90,-64.63
5792.43,-83.78
5813.96,-95.58
5835.50,-87.14
5857.03,-68.07
5878.56,-56.50
5900.10,-57.91
5921.63,-74.87
5943.16,-89.79
5964.70,-87.06
5986.23,-69.40
6007.76,-56.42
6029.30,-57.05
6050.83,-72.21
6072.36,-88.31
6093.90,-95.34
6115.43,-80.49
6136.96,-66.04
6158.50,-65.80
6180.03,-79.32
6201.56,-94.87
6223.10,-87.92
6244.63,-72.29
6266.16,-56.11
6287.70,-54.94
6309.23,-67.05
6330.76,-85.57
6352.29,-94.95
6373.83,-85.89
6395.36,-67.68
6416.89,-65.65
6438.43,-76.43
6459.96,-96.12
6481.49,-93.93
6503.03,-80.02
6524.56,-59.32
6546.09,-56.42
6567.63,-65.96
6589.16,-88.15
6610.69,-96.51
6632.23,-84.79
6653.76,-60.80
6675.29,-56.97
6696.83,-65.41
6718.36,-90.50
6739.89,-101.20
6761.43,-96.67
6782.96,-67.76
6804.49,-62.99
6826.03,-70.41
6847.56,-100.11
6869.09,-110.58
6890.63,-101.36
6912.16,-60.64
6933.69,-54.94
6955.22,-61.35
6976.76,-102.30
6998.29,-113.86
7019.82,-111.44
7041.36,-75.80
7062.89,-69.16
7084.42,-74.55
7105.96,-108.55
7127.49,-103.47
7149.02,-92.14
7170.56,-64.08
7192.09,-56.35
7213.62,-60.80
7235.16,-88.23
7256.69,-99.72
7278.22,-91.51
7299.76,-67.37
7321.29,-58.61
7342.82,-62.13
7364.36,-85.18
7385.89,-98.15
7407.42,-93.86
7428.96,-72.37
7450.49,-62.44
7472.02,-65.10
7493.55,-85.10
7515.09,-96.20
7536.62,-87.29
7558.15,-67.68
7579.69,-56.50
7601.22,-58.30
7622.75,-75.96
7644.29,-90.89
7665.82,-99.56
7687.35,-89.32
7708.89,-76.82
7730.42,-77.76
7751.95,-93.31
7773.49,-98.31
7795.02,-88.93
7816.55,-71.98
7838.09,-58.07
7859.62,-58.07
7881.15,-72.13
7902.69,-88.93
7924.22,-92.92
7945.75,-77.52
7967.29,-61.97
7988.82,-61.11
8010.35,-73.69
8031.88,-91.67
8053.42,-95.65
8074.95,-81.27
8096.48,-63.77
8118.02,-62.05
8139.55,-73.23
8161.08,-92.68
8182.62,-93.62
8204.15,-79.63
8225.68,-59.79
8247.22,-57.21
8268.75,-67.13
8290.28,-88.62
8311.82,-99.09
8333.35,-106.28
8354.88,-104.41
8376.42,-100.89
8397.95,-108.63
8419.48,-109.64
8441.02,-101.51
8462.55,-88.54
8484.08,-61.50
8505.62,-57.13
8527.15,-64.86
8548.68,-92.68
8570.21,-103.78
8591.75,-101.90
8613.28,-67.21
8634.81,-61.89
8656.35,-68.62
8677.88,-103.78
8699.41,-114.80
8720.95,-109.72
8742.48,-67.21
8764.01,-60.88
8785.55,-66.66
8807.08,-108.47
8828.61,-106.59
8850.15,-95.18
8871.68,-65.10
8893.21,-57.75
8914.75,-62.60
8936.28,-92.06
8957.81,-104.72
8979.35,-110.03
9000.88,-85.89
9022.41,-77.52
9043.95,-81.35
9065.48,-104.48
9087.01,-100.26
9108.54,-89.64
9130.08,-67.29
9151.61,-57.75
9173.14,-60.72
9194.68,-81.67
9216.21,-95.42
9237.74,-95.34
9259.28,-75.26
9280.81,-64.55
9302.34,-66.66
9323.88,-85.03
9345.41,-98.47
9366.94,-91.98
9388.48,-73.38
9410.01,-61.43
9431.54,-62.60
9453.08,-78.93
9474.61,-94.01
9496.14,-90.65
9517.68,-73.38
9539.21,-60.02
9560.74,-60.33
9582.28,-74.87
9603.81,-91.36
9625.34,-100.03
9646.88,-88.62
9668.41,-73.69
9689.94,-73.15
9711.47,-86.12
9733.01,-100.19
9754.54,-92.21
9776.07,-76.98
9797.61,-60.18
9819.14,-58.69
9840.67,-70.41
9862.21,-89.40
9883.74,-98.47
9905.27,-88.07
9926.81,-69.16
9948.34,-66.82
9969.87,-77.21
9991.41,-97.76
10012.94,-99.01
10034.47,-85.57
10056.01,-63.85
10077.54,-60.64
10099.07,-69.87
10120.61,-92.92
10142.14,-100.97
10163.67,-89.40
10185.21,-64.00
10206.74,-59.94
10228.27,-67.99
10249.80,-94.25
10271.34,-105.26
10292.87,-104.95
10314.40,-73.93
10335.94,-68.93
10357.47,-75.96
10379.00,-107.84
10400.54,-119.41
10422.07,-122.85
10443.60,-64.40
10465.14,-58.38
10486.67,-64.47
10508.20,-123.00
10529.74,-120.19
10551.27,-108.86
10572.80,-76.27
10594.34,-69.24
10615.87,-74.40
10637.40,-106.12
10658.94,-106.05
10680.47,-95.03
10702.00,-68.38
10723.54,-60.33
10745.07,-64.55
10766.60,-90.34
10788.13,-101.83
10809.67,-93.54
10831.20,-70.33
10852.73,-61.19
10874.27,-64.47
10895.80,-86.43
10917.33,-99.87
10938.87,-98.78
10960.40,-78.07
10981.93,-67.76
11003.47,-70.10
11025.00,-89.32
11046.53,-99.56
11068.07,-90.42
11089.60,-71.27
11111.13,-59.79
11132.67,-61.27
11154.20,-78.23
11175.73,-93.47
11197.27,-101.36
11218.80,-87.21
11240.33,-74.32
11261.87,-74.95
11283.40,-90.11
11304.93,-101.44
11326.46,-92.76
11348.00,-76.20
11369.53,-61.74
11391.06,-61.50
11412.60,-75.02
11434.13,-92.21
11455.66,-95.65
11477.20,-80.49
11498.73,-64.32
11520.26,-63.22
11541.80,-75.34
11563.33,-93.78
11584.86,-100.19
11606.40,-86.59
11627.93,-68.38
11649.46,-66.43
11671.00,-77.21
11692.53,-97.14
11714.06,-97.29
11735.60,-83.46
11757.13,-62.75
11778.66,-59.94
11800.20,-69.47
11821.73,-91.67
11843.26,-102.22
11864.79,-106.44
11886.33,-83.70
11907.86,-79.95
11929.39,-88.46
11950.93,-112.22
11972.46,-106.67
11993.99,-94.01
12015.53,-65.10
12037.06,-60.41
12058.59,-67.76
12080.13,-97.29
12101.66,-108.63
12123.19,-109.17
12144.73,-69.32
12166.26,-63.69
12187.79,-70.10
12209.33,-110.42
12230.86,-118.24
12252.39,-107.92
12273.93,-71.58
12295.46,-64.94
12316.99,-70.33
12338.53,-106.20
12360.06,-107.45
12381.59,-96.28
12403.13,-68.07
12424.66,-60.41
12446.19,-64.86
12467.72,-92.37
12489.26,-105.26
12510.79,-113.47
12532.32,-113.00
12553.86,-105.50
12575.39,-109.02
12596.92,-110.11
12618.46,-102.92
12639.99,-92.37
12661.52,-70.73
12683.06,-60.88
12704.59,-63.54
12726.12,-83.62
12747.66,-97.61
12769.19,-96.67
12790.72,-77.13
12812.26,-66.04
12833.79,-67.83
12855.32,-85.49
12876.86,-99.87
12898.39,-95.73
12919.92,-77.68
12941.46,-65.26
12962.99,-66.11
12984.52,-81.90
13006.05,-97.14
13027.59,-93.23
13049.12,-76.35
13070.65,-62.44
13092.19,-62.52
13113.72,-76.59
13135.25,-93.39
13156.79,-102.76
13178.32,-98.08
13199.85,-82.68
13221.39,-81.82
13242.92,-94.40
13264.45,-104.25
13285.99,-95.58
13307.52,-80.57
13329.05,-63.15
13350.59,-61.43
13372.12,-72.68
13393.65,-92.14
13415.19,-101.05
13436.72,-89.87
13458.25,-70.10
13479.79,-67.52
13501.32,-77.52
13522.85,-98.86
13544.38,-103.16
13565.92,-90.11
13587.45,-67.37
13608.98,-63.93
13630.52,-72.76
13652.05,-96.67
13673.58,-104.80
13695.12,-93.31
13716.65,-66.43
13738.18,-62.05
13759.72,-69.79
13781.25,-97.45
13802.78,-108.70
13824.32,-113.24
13845.85,-80.02
13867.38,-74.71
13888.92,-81.43
13910.45,-116.21
13931.98,-121.91
13953.52,-110.58
13975.05,-67.29
13996.58,-61.04
14018.12,-66.74
14039.65,-109.88
14061.18,-117.77
14082.71,-106.91
14104.25,-76.74
14125.78,-69.40
14147.31,-74.24
14168.85,-103.70
14190.38,-107.92
14211.91,-97.22
14233.45,-71.82
14254.98,-63.46
14276.51,-67.37
14298.05,-91.75
14319.58,-103.31
14341.11,-94.95
14362.65,-72.52
14384.18,-63.07
14405.71,-66.04
14427.25,-87.06
14448.78,-100.89
14470.31,-103.31
14491.85,-83.46
14513.38,-72.84
14534.91,-74.87
14556.45,-93.31
14577.98,-102.22
14599.51,-92.84
14621.04,-74.16
14642.58,-62.21
14664.11,-63.38
14685.64,-79.79
14707.18,-95.26
14728.71,-102.30
14750.24,-86.74
14771.78,-73.38
14793.31,-73.69
14814.84,-88.31
14836.38,-103.08
14857.91,-96.04
14879.44,-79.79
14900.98,-64.86
14922.51,-64.32
14944.04,-77.45
14965.58,-94.95
14987.11,-97.76
15008.64,-82.84
15030.18,-66.04
15051.71,-64.63
15073.24,-76.35
15094.78,-95.26
15116.31,-103.55
15137.84,-91.20
15159.38,-72.29
15180.91,-70.02
15202.44,-80.49
15223.97,-100.89
15245.51,-100.50
15267.04,-86.90
15288.57,-65.26
15310.11,-62.13
15331.64,-71.35
15353.17,-94.25
15374.71,-104.87
15396.24,-104.80
15417.77,-79.79
15439.31,-75.73
15460.84,-83.85
15482.37,-109.95
15503.91,-111.59
15525.44,-99.33
15546.97,-68.07
15568.51,-63.07
15590.04,-70.18
15611.57,-101.90
15633.11,-113.39
15654.64,-120.66
15676.17,-70.96
15697.71,-64.94
15719.24,-71.04
15740.77,-124.64
15762.30,-119.96
15783.84,-108.47
15805.37,-75.65
15826.90,-68.69
15848.44,-73.85
15869.97,-106.05
15891.50,-108.16
15913.04,-97.14
15934.57,-70.41
15956.10,-62.44
15977.64,-66.66
15999.17,-92.53
16020.70,-105.58
16042.24,-112.38
16063.77,-91.90
16085.30,-82.84
16106.84,-86.12
16128.37,-107.37
16149.90,-105.03
16171.44,-94.64
16192.97,-73.69
16214.50,-63.46
16236.04,-65.80
16257.57,-85.10
16279.10,-99.17
16300.63,-97.53
16322.17,-78.46
16343.70,-66.97
16365.23,-68.46
16386.77,-85.49
16408.30,-100.42
16429.83,-99.17
16451.37,-81.59
16472.90,-68.69
16494.43,-69.32
16515.97,-84.48
16537.50,-99.95
16559.03,-95.26
16580.57,-78.70
16602.10,-64.32
16623.63,-64.08
16645.17,-77.68
16666.70,-94.87
16688.23,-104.48
16709.77,-110.74
16731.30,-103.94
16752.83,-102.84
16774.37,-111.44
16795.90,-107.45
16817.43,-98.62
16838.96,-83.85
16860.50,-65.65
16882.03,-63.69
16903.56,-74.55
16925.10,-94.56
16946.63,-103.16
16968.16,-91.59
16989.70,-71.04
17011.23,-68.15
17032.76,-77.76
17054.30,-99.87
17075.83,-106.75
17097.36,-94.56
17118.90,-70.65
17140.43,-66.90
17161.96,-75.41
17183.50,-100.34
17205.03,-108.39
17226.56,-96.98
17248.10,-68.22
17269.63,-63.54
17291.16,-70.96
17312.70,-100.34
17334.23,-111.75
17355.76,-119.25
17377.29,-89.25
17398.83,-83.62
17420.36,-90.03
17441.89,-125.11
17463.43,-118.16
17484.96,-106.44
17506.49,-69.79
17528.03,-63.15
17549.56,-68.62
17571.09,-105.03
17592.63,-115.11
17614.16,-105.50
17635.69,-77.21
17657.23,-69.55
17678.76,-74.09
17700.29,-101.59
17721.83,-109.56
17743.36,-99.33
17764.89,-75.02
17786.43,-66.35
17807.96,-69.94
17829.49,-93.07
17851.03,-104.56
17872.56,-96.12
17894.09,-74.48
17915.63,-64.63
17937.16,-67.29
17958.69,-87.45
17980.22,-101.59
18001.76,-107.84
18023.29,-89.56
18044.82,-78.54
18066.36,-80.34
18087.89,-98.00
18109.42,-104.41
18130.96,-94.87
18152.49,-76.66
18174.02,-64.24
18195.56,-65.18
18217.09,-80.96
18238.62,-96.75
18260.16,-102.53
18281.69,-86.59
18303.22,-72.76
18324.76,-72.84
18346.29,-86.90
18367.82,-103.08
18389.36,-98.94
18410.89,-83.07
18432.42,-67.60
18453.96,-66.74
18475.49,-79.40
18497.02,-97.29
18518.55,-99.56
18540.09,-84.87
18561.62,-67.44
18583.15,-65.80
18604.69,-77.05
18626.22,-96.51
18647.75,-106.05
18669.29,-97.06
18690.82,-77.37
18712.35,-74.79
18733.89,-84.87
18755.42,-105.73
18776.95,-103.31
18798.49,-89.79
18820.02,-67.13
18841.55,-63.69
18863.09,-72.60
18884.62,-96.43
18906.15,-107.14
18927.69,-105.11
18949.22,-78.54
18970.75,-74.16
18992.29,-81.98
19013.82,-109.56
19035.35,-116.44
19056.88,-105.03
19078.42,-70.65
19099.95,-65.33
19121.48,-72.05
19143.02,-106.83
19164.55,-118.24
19186.08,-115.97
19207.62,-72.13
19229.15,-65.88
19250.68,-71.66
19272.22,-115.42
19293.75,-121.52
19315.28,-110.34
19336.82,-80.02
19358.35,-72.76
19379.88,-77.60
19401.42,-107.06
19422.95,-108.78
19444.48,-97.92
19466.02,-72.44
19487.55,-64.16
19509.08,-67.99
19530.62,-92.53
19552.15,-105.66
19573.68,-109.02
19595.21,-87.21
19616.75,-77.76
19638.28,-80.73
19659.81,-101.67
19681.35,-106.75
19702.88,-96.67
19724.41,-76.35
19745.95,-65.72
19767.48,-67.83
19789.01,-86.28
19810.55,-100.58
19832.08,-98.39
19853.61,-79.79
19875.15,-67.91
19896.68,-69.08
19918.21,-85.49
19939.75,-100.89
19961.28,-102.45
19982.81,-85.34
20004.35,-72.05
20025.88,-72.37
20047.41,-87.06
20068.95,-102.45
20090.48,-97.14
20112.01,-80.88
20133.54,-65.96
20155.08,-65.49
20176.61,-78.62
20198.14,-96.20
20219.68,-105.66
20241.21,-99.95
20262.74,-83.31
20284.28,-81.98
20305.81,-93.70
20327.34,-109.02
20348.88,-101.12
20370.41,-86.67
20391.94,-67.76
20413.48,-65.49
20435.01,-75.96
20456.54,-96.59
20478.08,-104.87
20499.61,-93.23
20521.14,-71.66
20542.68,-68.54
20564.21,-77.84
20585.74,-100.73
20607.28,-109.88
20628.81,-99.01
20650.34,-73.85
20671.88,-69.79
20693.41,-77.91
20714.94,-104.01
20736.47,-111.99
20758.01,-100.81
20779.54,-69.71
20801.07,-64.79
20822.61,-71.90
20844.14,-103.39
20865.67,-114.95
20887.21,-122.69
20908.74,-113.16
20930.27,-107.37
20951.81,-113.31
20973.34,-124.10
20994.87,-116.44
21016.41,-104.80
21037.94,-71.82
21059.47,-64.86
21081.01,-70.02
21102.54,-102.61
21124.07,-113.16
21145.61,-104.41
21167.14,-77.60
21188.67,-69.63
21210.21,-73.85
21231.74,-99.87
21253.27,-110.66
21274.80,-101.44
21296.34,-77.99
21317.87,-68.93
21339.40,-72.29
21360.94,-94.25
21382.47,-105.50
21404.00,-97.14
21425.54,-76.20
21447.07,-65.96
21468.60,-68.38
21490.14,-87.60
21511.67,-102.06
21533.20,-110.66
21554.74,-99.40
21576.27,-87.84
21597.80,-89.01
21619.34,-99.79
21640.87,-106.52
21662.40,-96.90
21683.94,-79.09
21705.47,-66.27
21727.00,-66.90
21748.54,-81.12
21770.07,-97.92
21791.60,-103.00
21813.13,-87.60
21834.67,-73.30
21856.20,-72.99
21877.73,-86.28
21899.27,-103.55
21920.80,-103.08
21942.33,-87.60
21963.87,-71.43
21985.40,-68.85
22006.93,-73.07
22028.47,-91.04
22050.00,-103.00
