Frequency (Hz),Power (dB),44100.0000,2048,0,2.0000,0,L+R
0.00,-66.19
21.53,-72.21
43.07,-113.63
64.60,-105.97
86.13,-94.48
107.67,-62.29
129.20,-55.25
150.73,-60.25
172.27,-92.14
193.80,-99.56
215.33,-89.01
236.87,-62.52
258.40,-54.47
279.93,-58.61
301.46,-84.24
323.00,-95.89
344.53,-87.14
366.06,-63.93
387.60,-54.78
409.13,-57.99
430.66,-79.87
452.20,-92.92
473.73,-86.12
495.26,-65.26
516.80,-54.94
538.33,-57.28
559.86,-76.35
581.40,-90.50
602.93,-85.89
624.46,-66.82
646.00,-55.25
667.53,-56.66
689.06,-73.62
710.60,-88.70
732.13,-86.20
753.66,-68.54
775.20,-55.49
796.73,-56.11
818.26,-71.19
839.79,-87.29
861.33,-87.06
882.86,-70.57
904.39,-56.03
925.93,-55.72
947.46,-69.24
968.99,-86.51
990.53,-88.15
1012.06,-72.76
1033.59,-56.42
1055.13,-55.33
1076.66,-67.37
1098.19,-85.96
1119.73,-89.79
1141.26,-75.41
1162.79,-57.05
1184.33,-55.02
1205.86,-65.80
1227.39,-85.96
1248.93,-91.98
1270.46,-78.54
1291.99,-57.68
1313.53,-54.78
1335.06,-64.32
1356.59,-86.59
1378.13,-94.79
1399.66,-82.60
1421.19,-58.46
1442.72,-54.63
1464.26,-63.07
1485.79,-88.23
1507.32,-98.23
1528.86,-88.54
1550.39,-59.24
1571.92,-54.55
1593.46,-61.89
1614.99,-91.67
1636.52,-102.92
1658.06,-101.51
1679.59,-60.18
1701.12,-54.47
1722.66,-60.88
1744.19,-102.06
1765.72,-107.84
1787.26,-96.90
1808.79,-61.19
1830.32,-54.55
1851.86,-59.94
1873.39,-95.50
1894.92,-101.28
1916.46,-90.34
1937.99,-62.29
1959.52,-54.63
1981.05,-59.08
2002.59,-86.43
2024.12,-97.22
2045.65,-87.68
2067.19,-63.54
2088.72,-54.78
2110.25,-58.30
2131.79,-81.35
2153.32,-93.93
2174.85,-86.51
2196.39,-64.94
2217.92,-55.02
2239.45,-57.68
2260.99,-77.60
2282.52,-91.43
2304.05,-86.12
2325.59,-66.51
2347.12,-55.33
2368.65,-57.05
2390.19,-74.71
2411.72,-89.48
2433.25,-86.35
2454.79,-68.15
2476.32,-55.64
2497.85,-56.58
2519.38,-72.21
2540.92,-88.00
2562.45,-86.98
2583.98,-70.10
2605.52,-56.11
2627.05,-56.19
2648.58,-70.18
2670.12,-87.06
2691.65,-88.07
2713.18,-72.29
2734.72,-56.66
2756.25,-55.80
2777.78,-68.30
2799.32,-86.43
2820.85,-89.64
2842.38,-74.79
2863.92,-57.21
2885.45,-55.49
2906.98,-66.66
2928.52,-86.35
2950.05,-91.59
2971.58,-77.76
2993.12,-57.83
3014.65,-55.25
3036.18,-65.18
3057.71,-86.74
3079.25,-94.25
3100.78,-81.59
3122.31,-58.61
3143.85,-55.10
3165.38,-63.93
3186.91,-88.00
3208.45,-97.45
3229.98,-86.67
3251.51,-59.47
3273.05,-55.02
3294.58,-62.75
3316.11,-90.65
3337.65,-101.59
3359.18,-95.65
3380.71,-60.41
3402.25,-55.02
3423.78,-61.74
3445.31,-97.14
3466.85,-108.16
3488.38,-103.16
3509.91,-61.35
3531.45,-55.02
3552.98,-60.72
3574.51,-102.69
3596.04,-103.78
3617.58,-92.45
3639.11,-62.52
3660.64,-55.17
3682.18,-59.94
3703.71,-89.32
3725.24,-99.01
3746.78,-89.01
3768.31,-63.77
3789.84,-55.33
3811.38,-59.16
3832.91,-83.46
3854.44,-95.65
3875.98,-87.45
3897.51,-65.10
3919.04,-55.57
3940.58,-58.53
3962.11,-79.40
3983.64,-92.84
4005.18,-86.82
4026.71,-66.58
4048.24,-55.88
4069.78,-57.91
4091.31,-76.27
4112.84,-90.73
4134.38,-86.90
4155.91,-68.22
4177.44,-56.27
4198.97,-57.44
4220.51,-73.69
4242.04,-89.17
4263.57,-87.45
4285.11,-70.10
4306.64,-56.66
4328.17,-56.97
4349.71,-71.51
4371.24,-88.00
4392.77,-88.39
4414.31,-72.29
4435.84,-57.21
4457.37,-56.66
4478.91,-69.63
4500.44,-87.29
4521.97,-89.79
4543.51,-74.71
4565.04,-57.83
4586.57,-56.35
4608.11,-67.99
4629.64,-87.06
4651.17,-91.67
4672.71,-77.52
4694.24,-58.46
4715.77,-56.11
4737.30,-66.51
4758.84,-87.29
4780.37,-94.09
4801.90,-80.96
4823.44,-59.24
4844.97,-56.03
4866.50,-65.18
4888.04,-88.31
4909.57,-97.14
4931.10,-85.57
4952.64,-60.02
4974.17,-55.88
4995.70,-64.00
5017.24,-90.34
5038.77,-100.81
5060.30,-92.68
5081.84,-60.96
5103.37,-55.88
5124.90,-62.91
5146.44,-95.03
5167.97,-106.52
5189.50,-114.02
5211.04,-61.97
5232.57,-55.96
5254.10,-61.97
5275.63,-114.41
5297.17,-106.98
5318.70,-95.50
5340.23,-63.07
5361.77,-56.03
5383.30,-61.11
5404.83,-93.23
5426.37,-101.36
5447.90,-90.81
5469.43,-64.24
5490.97,-56.27
5512.50,-60.41
5534.03,-86.12
5555.57,-97.68
5577.10,-88.78
5598.63,-65.57
5620.17,-56.42
5641.70,-59.71
5663.23,-81.67
5684.77,-94.72
5706.30,-88.00
5727.83,-67.13
5749.37,-56.82
5770.90,-59.16
5792.43,-78.31
5813.96,-92.45
5835.50,-87.92
5857.03,-68.77
5878.56,-57.21
5900.10,-58.61
5921.63,-75.65
5943.16,-90.73
5964.70,-88.31
5986.23,-70.57
6007.76,-57.60
6029.30,-58.22
6050.83,-73.30
6072.36,-89.48
6093.90,-89.17
6115.43,-72.60
6136.96,-58.14
6158.50,-57.83
6180.03,-71.35
6201.56,-88.62
6223.10,-90.42
6244.63,-74.95
6266.16,-58.77
6287.70,-57.60
6309.23,-69.71
6330.76,-88.23
6352.29,-92.14
6373.83,-77.68
6395.36,-59.39
6416.89,-57.44
6438.43,-68.15
6459.96,-88.39
6481.49,-94.40
6503.03,-80.88
6524.56,-60.10
6546.09,-57.21
6567.63,-66.82
6589.16,-89.09
6610.69,-97.22
6632.23,-85.03
6653.76,-60.96
6675.29,-57.21
6696.83,-65.65
6718.36,-90.73
6739.89,-100.73
6761.43,-91.04
6782.96,-61.89
6804.49,-57.21
6826.03,-64.55
6847.56,-94.25
6869.09,-105.50
6890.63,-103.70
6912.16,-62.91
6933.69,-57.21
6955.22,-63.61
6976.76,-104.33
6998.29,-110.81
7019.82,-100.03
7041.36,-64.00
7062.89,-57.36
7084.42,-62.75
7105.96,-98.62
7127.49,-104.33
7149.02,-93.31
7170.56,-65.26
7192.09,-57.52
7213.62,-62.05
7235.16,-89.48
7256.69,-100.26
7278.22,-90.73
7299.76,-66.58
7321.29,-57.83
7342.82,-61.35
7364.36,-84.40
7385.89,-97.06
7407.42,-89.64
7428.96,-68.07
7450.49,-58.14
7472.02,-60.80
7493.55,-80.81
7515.09,-94.56
7536.62,-89.32
7558.15,-69.63
7579.69,-58.53
7601.22,-60.33
7622.75,-77.99
7644.29,-92.76
7665.82,-89.64
7687.35,-71.51
7708.89,-59.00
7730.42,-59.94
7751.95,-75.65
7773.49,-91.36
7795.02,-90.34
7816.55,-73.46
7838.09,-59.55
7859.62,-59.55
7881.15,-73.62
7902.69,-90.42
7924.22,-91.59
7945.75,-75.73
7967.29,-60.18
7988.82,-59.32
8010.35,-71.82
8031.88,-89.95
8053.42,-93.15
8074.95,-78.38
8096.48,-60.80
8118.02,-59.08
8139.55,-70.33
8161.08,-89.87
8182.62,-95.26
8204.15,-81.43
8225.68,-61.58
8247.22,-59.00
8268.75,-68.93
8290.28,-90.42
8311.82,-97.92
8333.35,-85.26
8354.88,-62.44
8376.42,-58.93
8397.95,-67.76
8419.48,-91.75
8441.02,-101.20
8462.55,-90.42
8484.08,-63.38
8505.62,-58.93
8527.15,-66.66
8548.68,-94.48
8570.21,-105.34
8591.75,-99.40
8613.28,-64.40
8634.81,-59.00
8656.35,-65.72
8677.88,-100.89
8699.41,-112.06
8720.95,-107.84
8742.48,-65.49
8764.01,-59.16
8785.55,-64.94
8807.08,-107.45
8828.61,-108.08
8850.15,-96.75
8871.68,-66.74
8893.21,-59.39
8914.75,-64.16
8936.28,-93.70
8957.81,-103.39
8979.35,-93.39
9000.88,-68.07
9022.41,-59.71
9043.95,-63.54
9065.48,-87.92
9087.01,-100.11
9108.54,-91.90
9130.08,-69.47
9151.61,-60.02
9173.14,-62.99
9194.68,-83.93
9216.21,-97.37
9237.74,-91.43
9259.28,-71.12
9280.81,-60.49
9302.34,-62.52
9323.88,-80.96
9345.41,-95.34
9366.94,-91.59
9388.48,-72.91
9410.01,-60.96
9431.54,-62.13
9453.08,-78.46
9474.61,-93.86
9496.14,-92.29
9517.68,-74.95
9539.21,-61.50
9560.74,-61.89
9582.28,-76.43
9603.81,-92.92
9625.34,-93.31
9646.88,-77.13
9668.41,-62.13
9689.94,-61.58
9711.47,-74.63
9733.01,-92.29
9754.54,-94.87
9776.07,-79.71
9797.61,-62.91
9819.14,-61.50
9840.67,-73.15
9862.21,-92.14
9883.74,-96.83
9905.27,-82.68
9926.81,-63.69
9948.34,-61.35
9969.87,-71.74
9991.41,-92.53
10012.94,-99.33
10034.47,-86.28
10056.01,-64.55
10077.54,-61.35
10099.07,-70.57
10120.61,-93.62
10142.14,-102.53
10163.67,-90.96
10185.21,-65.49
10206.74,-61.43
10228.27,-69.55
10249.80,-95.81
10271.34,-106.28
10292.87,-98.08
10314.40,-66.58
10335.94,-61.50
10357.47,-68.62
10379.00,-100.50
10400.54,-111.99
10422.07,-119.25
10443.60,-67.68
10465.14,-61.74
10486.67,-67.76
10508.20,-120.11
10529.74,-113.08
10551.27,-101.59
10572.80,-69.01
10594.34,-61.97
10615.87,-67.13
10637.40,-99.40
10658.94,-107.53
10680.47,-96.98
10702.00,-70.33
10723.54,-62.36
10745.07,-66.51
10766.60,-92.37
10788.13,-103.94
10809.67,-95.11
10831.20,-71.82
10852.73,-62.68
10874.27,-65.96
10895.80,-88.00
10917.33,-101.05
10938.87,-94.48
10960.40,-73.54
10981.93,-63.22
11003.47,-65.57
11025.00,-84.79
11046.53,-98.94
11068.07,-94.48
11089.60,-75.34
11111.13,-63.77
11132.67,-65.26
11154.20,-82.29
11175.73,-97.37
11197.27,-95.11
11218.80,-77.37
11240.33,-64.47
11261.87,-65.10
11283.40,-80.26
11304.93,-96.28
11326.46,-96.04
11348.00,-79.56
11369.53,-65.10
11391.06,-64.86
11412.60,-78.38
11434.13,-95.58
11455.66,-97.53
11477.20,-82.13
11498.73,-65.88
11520.26,-64.79
11541.80,-76.90
11563.33,-95.42
11584.86,-99.40
11606.40,-84.95
11627.93,-66.74
11649.46,-64.71
11671.00,-75.49
11692.53,-95.65
11714.06,-101.83
11735.60,-88.39
11757.13,-67.68
11778.66,-64.79
11800.20,-74.40
11821.73,-96.59
11843.26,-104.87
11864.79,-92.76
11886.33,-68.69
11907.86,-64.94
11929.39,-73.38
11950.93,-98.47
11972.46,-108.47
11993.99,-98.86
12015.53,-69.87
12037.06,-65.18
12058.59,-72.60
12080.13,-102.14
12101.66,-113.39
12123.19,-111.44
12144.73,-71.12
12166.26,-65.41
12187.79,-71.82
12209.33,-112.06
12230.86,-119.33
12252.39,-108.78
12273.93,-72.44
12295.46,-65.80
12316.99,-71.27
12338.53,-107.45
12360.06,-113.16
12381.59,-102.14
12403.13,-73.93
12424.66,-66.27
12446.19,-70.80
12467.72,-98.31
12489.26,-109.25
12510.79,-99.79
12532.32,-75.57
12553.86,-66.82
12575.39,-70.41
12596.92,-93.54
12618.46,-106.20
12639.99,-98.94
12661.52,-77.29
12683.06,-67.44
12704.59,-70.10
12726.12,-90.18
12747.66,-103.94
12769.19,-98.94
12790.72,-79.16
12812.26,-68.07
12833.79,-69.87
12855.32,-87.60
12876.86,-102.37
12898.39,-99.56
12919.92,-81.35
12941.46,-68.93
12962.99,-69.87
12984.52,-85.65
13006.05,-101.36
13027.59,-100.65
13049.12,-83.70
13070.65,-69.79
13092.19,-69.87
13113.72,-83.93
13135.25,-100.73
13156.79,-102.14
13178.32,-86.28
13199.85,-70.73
13221.39,-69.94
13242.92,-82.53
13264.45,-100.58
13285.99,-104.01
13307.52,-89.25
13329.05,-71.74
13350.59,-70.02
13372.12,-81.27
13393.65,-100.81
13415.19,-106.44
13436.72,-92.68
13458.25,-72.91
13479.79,-70.33
13501.32,-80.34
13522.85,-101.75
13544.38,-109.48
13565.92,-96.90
13587.45,-74.16
13608.98,-70.65
13630.52,-79.56
13652.05,-103.47
13673.58,-113.08
13695.12,-102.53
13716.65,-75.57
13738.18,-71.19
13759.72,-78.93
13781.25,-106.59
13802.78,-117.53
13824.32,-111.75
13845.85,-76.98
13867.38,-71.66
13888.92,-78.38
13910.45,-113.31
13931.98,-124.57
13953.52,-121.68
13975.05,-78.77
13996.58,-72.44
14018.12,-78.23
14039.65,-121.44
14061.18,-122.07
14082.71,-110.74
14104.25,-80.49
14125.78,-73.23
14147.31,-78.07
14168.85,-107.77
14190.38,-117.85
14211.91,-107.92
14233.45,-82.53
14254.98,-74.16
14276.51,-78.07
14298.05,-102.53
14319.58,-114.80
14341.11,-107.06
14362.65,-84.63
14384.18,-75.18
14405.71,-78.15
14427.25,-99.17
14448.78,-112.69
14470.31,-107.30
14491.85,-86.98
14513.38,-76.27
14534.91,-78.38
14556.45,-96.83
14577.98,-111.36
14599.51,-108.39
14621.04,-89.71
14642.58,-77.76
14664.11,-79.01
14685.64,-95.34
14707.18,-110.81
14728.71,-110.03
14750.24,-92.76
14771.78,-79.32
14793.31,-79.71
14814.84,-94.32
14836.38,-110.74
14857.91,-112.22
14879.44,-96.12
14900.98,-81.12
14922.51,-80.57
14944.04,-93.70
14965.58,-111.28
14987.11,-115.42
15008.64,-100.42
15030.18,-83.62
15051.71,-82.21
15073.24,-93.86
15094.78,-112.92
15116.31,-118.63
15137.84,-104.64
15159.38,-85.65
15180.91,-83.38
15202.44,-93.78
15223.97,-114.49
15245.51,-123.08
15267.04,-110.89
15288.57,-89.17
15310.11,-86.04
15331.64,-95.26
15353.17,-118.24
15374.71,-128.16
15396.24,-118.71
15417.77,-93.39
15439.31,-89.32
15460.84,-97.45
15482.37,-123.63
15503.91,-134.49
15525.44,-130.11
15546.97,-98.78
15568.51,-93.78
15590.04,-100.81
15611.57,-132.54
15633.11,-143.95
15654.64,-151.21
15676.17,-104.09
15697.71,-98.15
15719.24,-104.25
15740.77,-152.46
15762.30,-145.43
15783.84,-134.02
15805.37,-101.28
15826.90,-94.32
15848.44,-99.40
15869.97,-131.91
15891.50,-134.80
15913.04,-123.79
15934.57,-97.06
15956.10,-89.09
15977.64,-93.23
15999.17,-119.25
16020.70,-128.24
16042.24,-118.16
16063.77,-94.87
16085.30,-85.73
16106.84,-89.01
16128.37,-111.13
16149.90,-123.32
16171.44,-114.95
16192.97,-93.93
16214.50,-83.70
16236.04,-86.04
16257.57,-105.34
16279.10,-119.17
16300.63,-113.24
16322.17,-94.01
16343.70,-82.53
16365.23,-84.01
16386.77,-101.05
16408.30,-115.97
16429.83,-111.91
16451.37,-94.09
16472.90,-81.27
16494.43,-81.90
16515.97,-97.06
16537.50,-113.08
16559.03,-111.52
16580.57,-94.95
16602.10,-80.49
16623.63,-80.26
16645.17,-93.86
16666.70,-111.05
16688.23,-111.52
16709.77,-95.97
16731.30,-79.87
16752.83,-78.70
16774.37,-90.89
16795.90,-109.41
16817.43,-112.30
16838.96,-97.68
16860.50,-79.56
16882.03,-77.52
16903.56,-88.39
16925.10,-108.47
16946.63,-113.47
16968.16,-99.87
16989.70,-79.16
17011.23,-76.35
17032.76,-85.96
17054.30,-108.08
17075.83,-115.58
17097.36,-103.08
17118.90,-79.16
17140.43,-75.41
17161.96,-83.93
17183.50,-108.86
17205.03,-118.47
17226.56,-108.08
17248.10,-79.24
17269.63,-74.55
17291.16,-81.98
17312.70,-111.36
17334.23,-122.61
17355.76,-119.49
17377.29,-79.63
17398.83,-74.01
17420.36,-80.42
17441.89,-120.19
17463.43,-127.22
17484.96,-116.52
17506.49,-79.95
17528.03,-73.30
17549.56,-78.77
17571.09,-115.27
17592.63,-119.80
17614.16,-108.78
17635.69,-80.42
17657.23,-72.84
17678.76,-77.29
17700.29,-105.03
17721.83,-115.35
17743.36,-105.66
17764.89,-81.27
17786.43,-72.60
17807.96,-76.20
17829.49,-99.40
17851.03,-111.83
17872.56,-103.86
17894.09,-82.13
17915.63,-72.29
17937.16,-75.02
17958.69,-95.18
17980.22,-108.78
18001.76,-103.08
18023.29,-83.31
18044.82,-72.29
18066.36,-74.09
18087.89,-91.82
18109.42,-106.44
18130.96,-102.76
18152.49,-84.48
18174.02,-72.13
18195.56,-73.07
18217.09,-88.85
18238.62,-104.48
18260.16,-103.00
18281.69,-86.04
18303.22,-72.13
18324.76,-72.21
18346.29,-86.35
18367.82,-103.08
18389.36,-103.62
18410.89,-87.84
18432.42,-72.29
18453.96,-71.51
18475.49,-84.09
18497.02,-102.14
18518.55,-104.80
18540.09,-89.95
18561.62,-72.52
18583.15,-70.80
18604.69,-82.13
18626.22,-101.59
18647.75,-106.44
18669.29,-92.53
18690.82,-72.84
18712.35,-70.26
18733.89,-80.26
18755.42,-101.67
18776.95,-108.70
18798.49,-95.89
18820.02,-73.23
18841.55,-69.79
18863.09,-78.62
18884.62,-102.53
18906.15,-111.75
18927.69,-100.73
18949.22,-73.85
18970.75,-69.47
18992.29,-77.29
19013.82,-104.87
19035.35,-115.66
19056.88,-108.86
19078.42,-74.40
19099.95,-69.08
19121.48,-75.80
19143.02,-110.50
19164.55,-121.75
19186.08,-118.71
19207.62,-75.10
19229.15,-68.85
19250.68,-74.63
19272.22,-118.39
19293.75,-117.61
19315.28,-106.28
19336.82,-75.96
19358.35,-68.69
19379.88,-73.46
19401.42,-103.31
19422.95,-112.53
19444.48,-102.37
19466.02,-76.90
19487.55,-68.54
19509.08,-72.44
19530.62,-96.98
19552.15,-108.86
19573.68,-100.42
19595.21,-77.99
19616.75,-68.54
19638.28,-71.51
19659.81,-92.61
19681.35,-105.81
19702.88,-99.56
19724.41,-79.24
19745.95,-68.54
19767.48,-70.65
19789.01,-89.17
19810.55,-103.47
19832.08,-99.33
19853.61,-80.65
19875.15,-68.69
19896.68,-69.94
19918.21,-86.35
19939.75,-101.67
19961.28,-99.64
19982.81,-82.29
20004.35,-68.93
20025.88,-69.32
20047.41,-83.93
20068.95,-100.34
20090.48,-100.34
20112.01,-84.17
20133.54,-69.24
20155.08,-68.77
20176.61,-81.82
20198.14,-99.40
20219.68,-101.51
20241.21,-86.35
20262.74,-69.63
20284.28,-68.22
20305.81,-79.95
20327.34,-98.86
20348.88,-103.16
20370.41,-89.01
20391.94,-70.10
20413.48,-67.83
20435.01,-78.31
20456.54,-98.94
20478.08,-105.34
20499.61,-92.21
20521.14,-70.65
20542.68,-67.44
20564.21,-76.74
20585.74,-99.64
20607.28,-108.23
20628.81,-96.51
20650.34,-71.35
20671.88,-67.29
20693.41,-75.41
20714.94,-101.51
20736.47,-111.75
20758.01,-103.08
20779.54,-71.90
20801.07,-66.97
20822.61,-74.09
20844.14,-105.58
20865.67,-117.06
20887.21,-123.32
20908.74,-72.84
20930.27,-66.90
20951.81,-72.99
20973.34,-123.63
20994.87,-118.24
21016.41,-106.75
21037.94,-73.77
21059.47,-66.82
21081.01,-71.98
21102.54,-104.64
21124.07,-112.14
21145.61,-101.59
21167.14,-74.79
21188.67,-66.82
21210.21,-71.04
21231.74,-96.98
21253.27,-108.23
21274.80,-99.40
21296.34,-75.96
21317.87,-66.97
21339.40,-70.26
21360.94,-92.29
21382.47,-105.11
21404.00,-98.23
21425.54,-77.21
21447.07,-66.97
21468.60,-69.40
21490.14,-88.62
21511.67,-102.61
21533.20,-98.00
21554.74,-78.77
21576.27,-67.29
21597.80,-68.85
21619.34,-85.57
21640.87,-100.73
21662.40,-98.23
21683.94,-80.49
21705.47,-67.68
21727.00,-68.22
21748.54,-82.37
21770.07,-99.17
21791.60,-99.09
21813.13,-82.68
21834.67,-68.30
21856.20,-67.83
21877.73,-78.07
21899.27,-96.98
21920.80,-100.97
21942.33,-85.96
21963.87,-69.87
21985.40,-67.76
22006.93,-73.15
22028.47,-91.20
22050.00,-103.16
