Frequency (Hz),Power (dB),44100.0000,2048,0,2.0000,0,L+R
0.00,-106.98
21.53,-110.27
43.07,-113.00
64.60,-107.30
86.13,-96.83
107.67,-66.43
129.20,-59.47
150.73,-64.55
172.27,-94.72
193.80,-101.83
215.33,-92.53
236.87,-66.51
258.40,-58.46
279.93,-62.60
301.46,-87.60
323.00,-98.23
344.53,-91.20
366.06,-69.47
387.60,-60.41
409.13,-63.61
430.66,-84.56
452.20,-97.45
473.73,-98.62
495.26,-79.48
516.80,-69.16
538.33,-71.51
559.86,-90.34
581.40,-102.69
602.93,-97.22
624.46,-78.77
646.00,-67.29
667.53,-68.69
689.06,-85.49
710.60,-99.40
732.13,-93.00
753.66,-75.41
775.20,-62.44
796.73,-63.07
818.26,-78.07
839.79,-94.01
861.33,-92.84
882.86,-76.51
904.39,-62.05
925.93,-61.74
947.46,-75.18
968.99,-92.45
990.53,-94.95
1012.06,-79.63
1033.59,-63.46
1055.13,-62.29
1076.66,-74.32
1098.19,-92.68
1119.73,-95.26
1141.26,-80.96
1162.79,-62.75
1184.33,-60.72
1205.86,-71.43
1227.39,-91.51
1248.93,-94.48
1270.46,-80.81
1291.99,-60.10
1313.53,-57.13
1335.06,-66.66
1356.59,-88.93
1378.13,-94.32
1399.66,-81.43
1421.19,-57.36
1442.72,-53.61
1464.26,-61.97
1485.79,-87.06
1507.32,-95.89
1528.86,-84.63
1550.39,-55.57
1571.92,-50.80
1593.46,-58.14
1614.99,-87.84
1636.52,-98.86
1658.06,-95.73
1679.59,-54.86
1701.12,-49.16
1722.66,-55.57
1744.19,-96.28
1765.72,-102.69
1787.26,-92.37
1808.79,-56.89
1830.32,-50.25
1851.86,-55.57
1873.39,-90.81
1894.92,-100.89
1916.46,-91.04
1937.99,-63.15
1959.52,-55.49
1981.05,-59.94
2002.59,-87.06
2024.12,-99.64
2045.65,-96.67
2067.19,-72.84
2088.72,-64.08
2110.25,-67.60
2131.79,-90.42
2153.32,-101.20
2174.85,-92.61
2196.39,-71.27
2217.92,-61.35
2239.45,-64.00
2260.99,-83.93
2282.52,-97.22
2304.05,-89.56
2325.59,-69.94
2347.12,-58.77
2368.65,-60.49
2390.19,-78.07
2411.72,-92.61
2433.25,-88.15
2454.79,-70.10
2476.32,-57.68
2497.85,-58.53
2519.38,-74.24
2540.92,-89.40
2562.45,-83.70
2583.98,-66.82
2605.52,-52.83
2627.05,-52.83
2648.58,-66.82
2670.12,-83.70
2691.65,-82.84
2713.18,-66.97
2734.72,-51.35
2756.25,-50.49
2777.78,-63.07
2799.32,-81.20
2820.85,-84.71
2842.38,-69.87
2863.92,-52.36
2885.45,-50.64
2906.98,-61.82
2928.52,-81.43
2950.05,-87.68
2971.58,-74.01
2993.12,-54.16
3014.65,-51.50
3036.18,-61.50
3057.71,-82.99
3079.25,-90.11
3100.78,-77.45
3122.31,-54.55
3143.85,-51.03
3165.38,-59.86
3186.91,-83.93
3208.45,-92.53
3229.98,-80.96
3251.51,-53.85
3273.05,-49.39
3294.58,-57.13
3316.11,-85.03
3337.65,-95.34
3359.18,-86.98
3380.71,-51.89
3402.25,-46.58
3423.78,-53.22
3445.31,-88.54
3466.85,-99.25
3488.38,-92.92
3509.91,-51.58
3531.45,-45.25
3552.98,-50.95
3574.51,-92.53
3596.04,-94.17
3617.58,-82.76
3639.11,-52.91
3660.64,-45.56
3682.18,-50.33
3703.71,-79.63
3725.24,-91.75
3746.78,-84.87
3768.31,-59.63
3789.84,-51.19
3811.38,-55.02
3832.91,-79.16
3854.44,-92.29
3875.98,-90.42
3897.51,-68.22
3919.04,-58.69
3940.58,-61.66
3962.11,-82.37
3983.64,-93.39
4005.18,-85.03
4026.71,-64.94
4048.24,-54.32
4069.78,-56.35
4091.31,-74.63
4112.84,-88.93
4134.38,-84.95
4155.91,-66.43
4177.44,-54.47
4198.97,-55.64
4220.51,-71.98
4242.04,-85.73
4263.57,-77.76
4285.11,-60.49
4306.64,-47.05
4328.17,-47.36
4349.71,-61.89
4371.24,-78.38
4392.77,-75.96
4414.31,-59.71
4435.84,-44.70
4457.37,-44.16
4478.91,-57.13
4500.44,-74.79
4521.97,-75.57
4543.51,-60.33
4565.04,-43.45
4586.57,-42.05
4608.11,-53.69
4629.64,-72.68
4651.17,-79.63
4672.71,-66.19
4694.24,-47.13
4715.77,-44.78
4737.30,-55.17
4758.84,-75.88
4780.37,-82.68
4801.90,-70.10
4823.44,-48.30
4844.97,-45.09
4866.50,-54.32
4888.04,-77.29
4909.57,-84.87
4931.10,-73.07
4952.64,-47.59
4974.17,-43.53
4995.70,-51.58
5017.24,-77.91
5038.77,-88.31
5060.30,-80.49
5081.84,-48.92
5103.37,-43.92
5124.90,-50.95
5146.44,-82.76
5167.97,-94.09
5189.50,-101.36
5211.04,-51.66
5232.57,-45.64
5254.10,-51.66
5275.63,-107.06
5297.17,-104.09
5318.70,-94.32
5340.23,-62.60
5361.77,-55.57
5383.30,-60.64
5404.83,-92.14
5426.37,-99.17
5447.90,-89.64
5469.43,-63.46
5490.97,-55.49
5512.50,-59.63
5534.03,-85.34
5555.57,-90.89
5577.10,-80.42
5598.63,-57.28
5620.17,-48.22
5641.70,-51.42
5663.23,-73.30
5684.77,-86.82
5706.30,-82.37
5727.83,-61.43
5749.37,-51.19
5770.90,-53.53
5792.43,-72.68
5813.96,-86.90
5835.50,-82.92
5857.03,-63.77
5878.56,-52.21
5900.10,-53.69
5921.63,-70.57
5943.16,-85.65
5964.70,-87.68
5986.23,-70.41
6007.76,-57.52
6029.30,-58.07
6050.83,-73.23
6072.36,-88.78
6093.90,-84.56
6115.43,-68.07
6136.96,-53.61
6158.50,-53.38
6180.03,-66.90
6201.56,-83.93
6223.10,-81.59
6244.63,-66.04
6266.16,-49.78
6287.70,-48.69
6309.23,-60.72
6330.76,-79.32
6352.29,-80.73
6373.83,-66.04
6395.36,-47.83
6416.89,-45.80
6438.43,-56.58
6459.96,-76.74
6481.49,-85.81
6503.03,-74.40
6524.56,-53.61
6546.09,-50.72
6567.63,-60.25
6589.16,-82.29
6610.69,-88.85
6632.23,-76.82
6653.76,-52.83
6675.29,-49.00
6696.83,-57.52
6718.36,-82.45
6739.89,-92.45
6761.43,-85.34
6782.96,-56.50
6804.49,-51.74
6826.03,-59.16
6847.56,-88.78
6869.09,-100.03
6890.63,-93.47
6912.16,-52.83
6933.69,-47.13
6955.22,-53.53
6976.76,-93.70
6998.29,-103.16
7019.82,-95.26
7041.36,-59.79
7062.89,-53.14
7084.42,-58.61
7105.96,-94.17
7127.49,-98.23
7149.02,-87.29
7170.56,-59.32
7192.09,-51.66
7213.62,-56.11
7235.16,-83.31
7256.69,-85.96
7278.22,-75.26
7299.76,-51.19
7321.29,-42.44
7342.82,-45.95
7364.36,-69.01
7385.89,-82.21
7407.42,-78.46
7428.96,-56.89
7450.49,-46.97
7472.02,-49.63
7493.55,-69.63
7515.09,-83.70
7536.62,-86.82
7558.15,-67.68
7579.69,-56.58
7601.22,-58.30
7622.75,-75.88
7644.29,-88.54
7665.82,-80.96
7687.35,-62.99
7708.89,-50.56
7730.42,-51.42
7751.95,-67.13
7773.49,-82.68
7795.02,-77.52
7816.55,-60.57
7838.09,-46.66
7859.62,-46.66
7881.15,-60.72
7902.69,-77.60
7924.22,-78.07
7945.75,-62.13
7967.29,-46.50
7988.82,-45.72
8010.35,-58.22
8031.88,-76.35
8053.42,-84.01
8074.95,-70.33
8096.48,-52.75
8118.02,-51.03
8139.55,-62.29
8161.08,-81.67
8182.62,-85.34
8204.15,-71.51
8225.68,-51.66
8247.22,-49.08
8268.75,-59.08
8290.28,-80.49
8311.82,-84.79
8333.35,-71.51
8354.88,-48.69
8376.42,-45.25
8397.95,-54.00
8419.48,-77.99
8441.02,-88.15
8462.55,-78.62
8484.08,-51.50
8505.62,-47.13
8527.15,-54.86
8548.68,-82.53
8570.21,-93.54
8591.75,-89.32
8613.28,-54.39
8634.81,-49.08
8656.35,-55.80
8677.88,-90.73
8699.41,-101.75
8720.95,-101.90
8742.48,-60.72
8764.01,-54.39
8785.55,-60.10
8807.08,-102.06
8828.61,-111.75
8850.15,-101.98
8871.68,-72.21
8893.21,-64.86
8914.75,-69.63
8936.28,-98.23
8957.81,-101.05
8979.35,-90.73
9000.88,-65.72
9022.41,-57.36
9043.95,-61.19
9065.48,-85.57
9087.01,-93.78
9108.54,-83.62
9130.08,-61.35
9151.61,-51.81
9173.14,-54.78
9194.68,-75.73
9216.21,-88.85
9237.74,-81.43
9259.28,-61.11
9280.81,-50.41
9302.34,-52.52
9323.88,-70.88
9345.41,-85.34
9366.94,-84.95
9388.48,-66.58
9410.01,-54.55
9431.54,-55.80
9453.08,-72.05
9474.61,-86.98
9496.14,-85.10
9517.68,-68.15
9539.21,-54.71
9560.74,-55.10
9582.28,-69.63
9603.81,-85.42
9625.34,-80.57
9646.88,-64.40
9668.41,-49.39
9689.94,-48.84
9711.47,-61.89
9733.01,-79.48
9754.54,-83.07
9776.07,-68.07
9797.61,-51.19
9819.14,-49.78
9840.67,-61.43
9862.21,-80.49
9883.74,-88.23
9905.27,-74.95
9926.81,-55.96
9948.34,-53.61
9969.87,-64.00
9991.41,-84.56
10012.94,-92.45
10034.47,-81.27
10056.01,-59.71
10077.54,-56.50
10099.07,-65.72
10120.61,-88.46
10142.14,-93.07
10163.67,-80.73
10185.21,-55.49
10206.74,-51.42
10228.27,-59.47
10249.80,-85.81
10271.34,-95.97
10292.87,-86.43
10314.40,-55.02
10335.94,-50.02
10357.47,-57.13
10379.00,-88.85
10400.54,-100.34
10422.07,-106.98
10443.60,-56.27
10465.14,-50.33
10486.67,-56.35
10508.20,-110.66
10529.74,-108.08
10551.27,-97.53
10572.80,-65.10
10594.34,-58.07
10615.87,-63.22
10637.40,-95.11
10658.94,-103.78
10680.47,-94.01
10702.00,-67.44
10723.54,-59.47
10745.07,-63.61
10766.60,-89.17
10788.13,-100.03
10809.67,-92.68
10831.20,-69.79
10852.73,-60.64
10874.27,-63.93
10895.80,-85.96
10917.33,-96.83
10938.87,-87.76
10960.40,-66.90
10981.93,-56.66
11003.47,-59.00
11025.00,-78.23
11046.53,-91.04
11068.07,-83.23
11089.60,-64.08
11111.13,-52.52
11132.67,-54.00
11154.20,-71.04
11175.73,-86.04
11197.27,-83.07
11218.80,-65.33
11240.33,-52.44
11261.87,-53.06
11283.40,-68.22
11304.93,-84.24
11326.46,-82.76
11348.00,-66.11
11369.53,-51.74
11391.06,-51.42
11412.60,-65.02
11434.13,-82.13
11455.66,-85.42
11477.20,-70.10
11498.73,-53.92
11520.26,-52.83
11541.80,-64.94
11563.33,-83.38
11584.86,-91.28
11606.40,-78.31
11627.93,-60.10
11649.46,-58.07
11671.00,-68.85
11692.53,-88.70
11714.06,-93.78
11735.60,-80.88
11757.13,-60.25
11778.66,-57.44
11800.20,-66.97
11821.73,-89.01
11843.26,-95.11
11864.79,-82.92
11886.33,-59.00
11907.86,-55.25
11929.39,-63.69
11950.93,-88.70
11972.46,-98.54
11993.99,-88.62
12015.53,-59.79
12037.06,-55.10
12058.59,-62.52
12080.13,-91.90
12101.66,-103.00
12123.19,-101.51
12144.73,-61.66
12166.26,-55.96
12187.79,-62.36
12209.33,-102.22
12230.86,-110.27
12252.39,-100.50
12273.93,-64.47
12295.46,-57.91
12316.99,-63.30
12338.53,-99.17
12360.06,-105.89
12381.59,-95.50
12403.13,-67.44
12424.66,-59.79
12446.19,-64.24
12467.72,-91.75
12489.26,-100.65
12510.79,-90.73
12532.32,-66.51
12553.86,-57.83
12575.39,-61.35
12596.92,-84.48
12618.46,-97.29
12639.99,-90.96
12661.52,-69.32
12683.06,-59.47
12704.59,-62.13
12726.12,-82.13
12747.66,-95.58
12769.19,-89.64
12790.72,-70.02
12812.26,-58.93
12833.79,-60.72
12855.32,-78.38
12876.86,-92.76
12898.39,-89.09
12919.92,-70.96
12941.46,-58.53
12962.99,-59.47
12984.52,-75.26
13006.05,-90.81
13027.59,-88.39
13049.12,-71.51
13070.65,-57.60
13092.19,-57.60
13113.72,-71.66
13135.25,-88.46
13156.79,-88.70
13178.32,-72.91
13199.85,-57.28
13221.39,-56.50
13242.92,-69.08
13264.45,-87.14
13285.99,-93.47
13307.52,-79.24
13329.05,-61.74
13350.59,-60.10
13372.12,-71.27
13393.65,-90.65
13415.19,-99.64
13436.72,-89.56
13458.25,-69.79
13479.79,-67.29
13501.32,-77.21
13522.85,-98.15
13544.38,-101.20
13565.92,-88.46
13587.45,-65.88
13608.98,-62.44
13630.52,-71.27
13652.05,-95.18
13673.58,-101.98
13695.12,-89.87
13716.65,-62.99
13738.18,-58.61
13759.72,-66.43
13781.25,-94.09
13802.78,-104.87
13824.32,-97.92
13845.85,-63.38
13867.38,-58.07
13888.92,-64.79
13910.45,-99.56
13931.98,-110.81
13953.52,-108.23
13975.05,-65.80
13996.58,-59.47
14018.12,-65.26
14039.65,-107.92
14061.18,-109.72
14082.71,-98.62
14104.25,-68.54
14125.78,-61.27
14147.31,-66.04
14168.85,-95.58
14190.38,-105.03
14211.91,-95.42
14233.45,-70.10
14254.98,-61.82
14276.51,-65.65
14298.05,-90.03
14319.58,-99.72
14341.11,-90.34
14362.65,-67.99
14384.18,-58.53
14405.71,-61.50
14427.25,-82.45
14448.78,-95.50
14470.31,-88.85
14491.85,-68.62
14513.38,-57.91
14534.91,-60.02
14556.45,-78.46
14577.98,-92.76
14599.51,-88.78
14621.04,-70.18
14642.58,-58.22
14664.11,-59.39
14685.64,-75.80
14707.18,-90.89
14728.71,-88.70
14750.24,-71.51
14771.78,-58.14
14793.31,-58.46
14814.84,-73.07
14836.38,-89.40
14857.91,-89.87
14879.44,-73.77
14900.98,-58.85
14922.51,-58.30
14944.04,-71.35
14965.58,-88.85
14987.11,-89.95
15008.64,-74.79
15030.18,-57.99
15051.71,-56.58
15073.24,-68.22
15094.78,-87.21
15116.31,-94.25
15137.84,-81.04
15159.38,-62.05
15180.91,-59.79
15202.44,-70.18
15223.97,-90.81
15245.51,-99.40
15267.04,-88.07
15288.57,-66.43
15310.11,-63.30
15331.64,-72.52
15353.17,-95.34
15374.71,-103.00
15396.24,-91.59
15417.77,-66.35
15439.31,-62.29
15460.84,-70.41
15482.37,-96.51
15503.91,-106.91
15525.44,-99.64
15546.97,-68.46
15568.51,-63.54
15590.04,-70.57
15611.57,-102.14
15633.11,-113.39
15654.64,-119.80
15676.17,-71.19
15697.71,-65.18
15719.24,-71.27
15740.77,-123.47
15762.30,-123.08
15783.84,-112.92
15805.37,-80.73
15826.90,-73.77
15848.44,-78.93
15869.97,-110.97
15891.50,-117.69
15913.04,-108.00
15934.57,-81.67
15956.10,-73.69
15977.64,-77.91
15999.17,-103.70
16020.70,-106.67
16042.24,-96.12
16063.77,-72.91
16085.30,-63.85
16106.84,-67.13
16128.37,-89.25
16149.90,-100.65
16171.44,-91.67
16192.97,-70.73
16214.50,-60.41
16236.04,-62.83
16257.57,-82.13
16279.10,-95.89
16300.63,-89.64
16322.17,-70.41
16343.70,-58.93
16365.23,-60.41
16386.77,-77.45
16408.30,-92.61
16429.83,-91.75
16451.37,-73.93
16472.90,-61.04
16494.43,-61.74
16515.97,-76.90
16537.50,-92.92
16559.03,-95.81
16580.57,-79.63
16602.10,-65.26
16623.63,-65.02
16645.17,-78.54
16666.70,-95.50
16688.23,-98.00
16709.77,-82.99
16731.30,-66.90
16752.83,-65.80
16774.37,-77.91
16795.90,-96.20
16817.43,-96.43
16838.96,-81.82
16860.50,-63.69
16882.03,-61.74
16903.56,-72.60
16925.10,-92.61
16946.63,-98.78
16968.16,-85.49
16989.70,-64.86
17011.23,-61.97
17032.76,-71.58
17054.30,-93.70
17075.83,-103.16
17097.36,-92.61
17118.90,-68.69
17140.43,-64.94
17161.96,-73.46
17183.50,-98.23
17205.03,-108.63
17226.56,-105.11
17248.10,-76.66
17269.63,-72.05
17291.16,-79.48
17312.70,-108.39
17334.23,-118.08
17355.76,-113.16
17377.29,-74.48
17398.83,-68.85
17420.36,-75.26
17441.89,-114.56
17463.43,-117.92
17484.96,-107.30
17506.49,-71.12
17528.03,-64.47
17549.56,-69.94
17571.09,-106.36
17592.63,-109.48
17614.16,-98.31
17635.69,-70.10
17657.23,-62.52
17678.76,-66.97
17700.29,-94.64
17721.83,-105.50
17743.36,-95.97
17764.89,-71.66
17786.43,-62.99
17807.96,-66.58
17829.49,-89.79
17851.03,-102.37
17872.56,-94.72
17894.09,-72.99
17915.63,-63.15
17937.16,-65.80
17958.69,-85.96
17980.22,-99.87
18001.76,-97.22
18023.29,-77.52
18044.82,-66.43
18066.36,-68.30
18087.89,-85.96
18109.42,-100.65
18130.96,-99.25
18152.49,-81.20
18174.02,-68.77
18195.56,-69.71
18217.09,-85.49
18238.62,-100.50
18260.16,-96.59
18281.69,-79.79
18303.22,-65.96
18324.76,-66.04
18346.29,-80.10
18367.82,-96.67
18389.36,-96.36
18410.89,-80.57
18432.42,-65.10
18453.96,-64.24
18475.49,-76.90
18497.02,-94.87
18518.55,-97.22
18540.09,-82.37
18561.62,-64.94
18583.15,-63.30
18604.69,-74.55
18626.22,-94.01
18647.75,-99.01
18669.29,-85.34
18690.82,-65.57
18712.35,-63.07
18733.89,-73.07
18755.42,-94.32
18776.95,-101.67
18798.49,-89.25
18820.02,-66.58
18841.55,-63.15
18863.09,-72.05
18884.62,-95.81
18906.15,-105.58
18927.69,-96.28
18949.22,-69.47
18970.75,-65.10
18992.29,-72.91
19013.82,-100.34
19035.35,-110.74
19056.88,-104.56
19078.42,-70.41
19099.95,-65.10
19121.48,-71.82
19143.02,-106.28
19164.55,-117.14
19186.08,-116.52
19207.62,-73.93
19229.15,-67.68
19250.68,-73.46
19272.22,-116.28
19293.75,-113.55
19315.28,-102.37
19336.82,-72.21
19358.35,-64.94
19379.88,-69.79
19401.42,-99.48
19422.95,-108.70
19444.48,-98.86
19466.02,-73.46
19487.55,-65.10
19509.08,-69.01
19530.62,-93.47
19552.15,-105.81
19573.68,-98.62
19595.21,-76.20
19616.75,-66.74
19638.28,-69.71
19659.81,-90.73
19681.35,-103.70
19702.88,-97.29
19724.41,-77.05
19745.95,-66.43
19767.48,-68.54
19789.01,-86.98
19810.55,-101.12
19832.08,-96.59
19853.61,-77.91
19875.15,-65.96
19896.68,-67.21
19918.21,-83.62
19939.75,-98.86
19961.28,-96.04
19982.81,-78.70
20004.35,-65.33
20025.88,-65.72
20047.41,-80.34
20068.95,-96.83
20090.48,-98.08
20112.01,-81.90
20133.54,-66.97
20155.08,-66.51
20176.61,-79.56
20198.14,-97.06
20219.68,-101.67
20241.21,-87.06
20262.74,-70.26
20284.28,-68.93
20305.81,-80.65
20327.34,-99.48
20348.88,-104.56
20370.41,-90.81
20391.94,-71.98
20413.48,-69.71
20435.01,-80.10
20456.54,-100.65
20478.08,-102.53
20499.61,-88.93
20521.14,-67.44
20542.68,-64.24
20564.21,-73.54
20585.74,-96.43
20607.28,-105.73
20628.81,-94.56
20650.34,-69.32
20671.88,-65.26
20693.41,-73.46
20714.94,-99.40
20736.47,-109.88
20758.01,-102.30
20779.54,-71.19
20801.07,-66.27
20822.61,-73.38
20844.14,-104.64
20865.67,-115.58
20887.21,-121.99
20908.74,-79.01
20930.27,-73.07
20951.81,-79.16
20973.34,-123.24
20994.87,-116.91
21016.41,-105.89
21037.94,-73.15
21059.47,-66.27
21081.01,-71.43
21102.54,-104.01
21124.07,-108.86
21145.61,-98.00
21167.14,-71.27
21188.67,-63.30
21210.21,-67.52
21231.74,-93.54
21253.27,-104.56
21274.80,-95.11
21296.34,-71.74
21317.87,-62.68
21339.40,-65.96
21360.94,-88.07
21382.47,-101.44
21404.00,-97.92
21425.54,-76.98
21447.07,-66.74
21468.60,-69.16
21490.14,-88.31
21511.67,-102.30
21533.20,-98.62
21554.74,-79.56
21576.27,-68.07
21597.80,-69.55
21619.34,-85.96
21640.87,-100.97
21662.40,-95.18
21683.94,-77.45
21705.47,-64.63
21727.00,-65.18
21748.54,-79.40
21770.07,-96.36
21791.60,-95.50
21813.13,-78.93
21834.67,-64.55
21856.20,-64.16
21877.73,-75.88
21899.27,-94.17
21920.80,-97.53
21942.33,-82.13
21963.87,-65.96
21985.40,-64.47
22006.93,-72.60
22028.47,-90.73
22050.00,-101.90
