Frequency (Hz),Power (dB),44100.0000,2048,0,2.0000,0,L+R
0.00,-40.17
21.53,-46.19
43.07,-86.35
64.60,-84.17
86.13,-75.10
107.67,-44.63
129.20,-37.67
150.73,-42.67
172.27,-72.52
193.80,-81.20
215.33,-75.34
236.87,-50.88
258.40,-42.91
279.93,-47.05
301.46,-71.51
323.00,-74.63
344.53,-64.63
366.06,-42.12
387.60,-33.06
409.13,-36.26
430.66,-57.36
452.20,-68.15
473.73,-62.21
495.26,-42.20
516.80,-32.04
538.33,-34.31
559.86,-53.14
581.40,-66.51
602.93,-63.38
624.46,-44.94
646.00,-33.45
667.53,-34.94
689.06,-51.66
710.60,-66.04
732.13,-61.50
753.66,-44.23
775.20,-31.42
796.73,-31.97
818.26,-46.97
839.79,-63.15
861.33,-63.54
882.86,-46.97
904.39,-32.59
925.93,-32.36
947.46,-45.64
968.99,-62.36
990.53,-70.88
1012.06,-64.24
1033.59,-48.53
1055.13,-47.36
1076.66,-59.16
1098.19,-75.41
1119.73,-70.33
1141.26,-56.11
1162.79,-38.14
1184.33,-36.11
1205.86,-46.74
1227.39,-65.88
1248.93,-67.60
1270.46,-54.78
1291.99,-34.47
1313.53,-31.58
1335.06,-41.03
1356.59,-62.52
1378.13,-71.74
1399.66,-65.57
1421.19,-42.36
1442.72,-38.61
1464.26,-46.89
1485.79,-70.65
1507.32,-79.16
1528.86,-75.41
1550.39,-48.61
1571.92,-43.92
1593.46,-51.35
1614.99,-79.16
1636.52,-86.43
1658.06,-80.26
1679.59,-43.84
1701.12,-38.22
1722.66,-44.55
1744.19,-80.96
1765.72,-84.87
1787.26,-76.20
1808.79,-43.22
1830.32,-36.65
1851.86,-41.97
1873.39,-75.10
1894.92,-84.95
1916.46,-78.77
1937.99,-51.50
1959.52,-43.84
1981.05,-48.22
2002.59,-74.01
2024.12,-82.37
2045.65,-75.65
2067.19,-52.91
2088.72,-44.23
2110.25,-47.75
2131.79,-70.10
2153.32,-82.21
2174.85,-79.40
2196.39,-58.77
2217.92,-48.92
2239.45,-51.50
2260.99,-70.57
2282.52,-78.31
2304.05,-70.18
2325.59,-51.19
2347.12,-40.17
2368.65,-41.89
2390.19,-59.24
2411.72,-73.30
2433.25,-74.09
2454.79,-57.13
2476.32,-44.78
2497.85,-45.64
2519.38,-61.19
2540.92,-76.66
2562.45,-77.60
2583.98,-61.19
2605.52,-47.36
2627.05,-47.36
2648.58,-61.11
2670.12,-76.35
2691.65,-74.48
2713.18,-59.55
2734.72,-44.16
2756.25,-43.30
2777.78,-55.72
2799.32,-73.15
2820.85,-78.31
2842.38,-65.72
2863.92,-48.53
2885.45,-46.81
2906.98,-57.91
2928.52,-76.90
2950.05,-81.67
2971.58,-69.01
2993.12,-49.55
3014.65,-46.97
3036.18,-56.82
3057.71,-78.07
3079.25,-85.65
3100.78,-72.68
3122.31,-50.17
3143.85,-46.66
3165.38,-55.33
3186.91,-78.46
3208.45,-87.29
3229.98,-82.45
3251.51,-56.74
3273.05,-52.36
3294.58,-60.02
3316.11,-86.82
3337.65,-95.81
3359.18,-90.57
3380.71,-57.83
3402.25,-52.52
3423.78,-59.16
3445.31,-90.96
3466.85,-95.03
3488.38,-87.76
3509.91,-50.25
3531.45,-44.00
3552.98,-49.63
3574.51,-86.43
3596.04,-91.12
3617.58,-84.32
3639.11,-56.42
3660.64,-49.16
3682.18,-53.92
3703.71,-82.37
3725.24,-93.93
3746.78,-86.59
3768.31,-61.97
3789.84,-53.61
3811.38,-57.44
3832.91,-80.73
3854.44,-88.85
3875.98,-80.49
3897.51,-58.93
3919.04,-49.55
3940.58,-52.44
3962.11,-72.84
3983.64,-85.03
4005.18,-79.32
4026.71,-59.71
4048.24,-49.08
4069.78,-51.11
4091.31,-69.16
4112.84,-82.68
4134.38,-80.49
4155.91,-62.60
4177.44,-50.72
4198.97,-51.89
4220.51,-67.99
4242.04,-82.53
4263.57,-79.40
4285.11,-62.68
4306.64,-49.31
4328.17,-49.63
4349.71,-63.85
4371.24,-78.77
4392.77,-78.07
4414.31,-63.15
4435.84,-48.38
4457.37,-47.83
4478.91,-60.80
4500.44,-78.38
4521.97,-79.24
4543.51,-64.08
4565.04,-47.44
4586.57,-46.03
4608.11,-57.52
4629.64,-75.73
4651.17,-79.24
4672.71,-66.19
4694.24,-47.52
4715.77,-45.25
4737.30,-55.49
4758.84,-75.73
4780.37,-85.18
4801.90,-84.63
4823.44,-64.24
4844.97,-61.04
4866.50,-70.10
4888.04,-90.89
4909.57,-92.06
4931.10,-81.04
4952.64,-56.58
4974.17,-52.52
4995.70,-60.49
5017.24,-84.71
5038.77,-88.00
5060.30,-78.15
5081.84,-48.30
5103.37,-43.30
5124.90,-50.33
5146.44,-80.65
5167.97,-90.73
5189.50,-96.20
5211.04,-64.94
5232.57,-59.08
5254.10,-65.02
5275.63,-104.25
5297.17,-100.97
5318.70,-90.26
5340.23,-59.32
5361.77,-52.36
5383.30,-57.44
5404.83,-87.06
5426.37,-91.04
5447.90,-81.82
5469.43,-56.27
5490.97,-48.30
5512.50,-52.44
5534.03,-76.90
5555.57,-84.17
5577.10,-75.96
5598.63,-53.69
5620.17,-44.63
5641.70,-47.83
5663.23,-69.32
5684.77,-82.37
5706.30,-80.10
5727.83,-59.63
5749.37,-49.39
5770.90,-51.74
5792.43,-70.49
5813.96,-83.78
5835.50,-85.10
5857.03,-67.68
5878.56,-56.35
5900.10,-57.75
5921.63,-74.32
5943.16,-86.51
5964.70,-80.49
5986.23,-63.30
6007.76,-50.56
6029.30,-51.11
6050.83,-66.04
6072.36,-81.20
6093.90,-83.93
6115.43,-69.40
6136.96,-55.25
6158.50,-54.94
6180.03,-68.30
6201.56,-84.95
6223.10,-84.71
6244.63,-69.63
6266.16,-53.69
6287.70,-52.52
6309.23,-64.47
6330.76,-82.45
6352.29,-89.71
6373.83,-79.48
6395.36,-61.74
6416.89,-59.71
6438.43,-70.33
6459.96,-89.01
6481.49,-89.01
6503.03,-76.27
6524.56,-56.03
6546.09,-53.22
6567.63,-62.68
6589.16,-84.56
6610.69,-94.32
6632.23,-83.31
6653.76,-59.55
6675.29,-55.80
6696.83,-64.08
6718.36,-87.76
6739.89,-93.86
6761.43,-84.79
6782.96,-57.13
6804.49,-52.44
6826.03,-59.79
6847.56,-88.00
6869.09,-95.73
6890.63,-90.73
6912.16,-54.08
6933.69,-48.45
6955.22,-54.78
6976.76,-90.89
6998.29,-96.36
7019.82,-88.93
7041.36,-56.19
7062.89,-49.63
7084.42,-54.94
7105.96,-87.92
7127.49,-93.86
7149.02,-85.65
7170.56,-58.69
7192.09,-51.03
7213.62,-55.49
7235.16,-81.35
7256.69,-85.57
7278.22,-76.51
7299.76,-53.14
7321.29,-44.47
7342.82,-47.99
7364.36,-70.49
7385.89,-82.92
7407.42,-79.40
7428.96,-58.38
7450.49,-48.53
7472.02,-51.19
7493.55,-70.65
7515.09,-81.59
7536.62,-75.18
7558.15,-56.19
7579.69,-45.17
7601.22,-46.97
7622.75,-64.32
7644.29,-78.23
7665.82,-78.62
7687.35,-61.74
7708.89,-49.47
7730.42,-50.33
7751.95,-65.72
7773.49,-79.48
7795.02,-75.88
7816.55,-59.79
7838.09,-46.03
7859.62,-46.03
7881.15,-59.86
7902.69,-76.12
7924.22,-82.45
7945.75,-70.49
7967.29,-55.33
7988.82,-54.55
8010.35,-67.05
8031.88,-85.10
8053.42,-83.93
8074.95,-69.01
8096.48,-51.74
8118.02,-50.02
8139.55,-61.11
8161.08,-79.40
8182.62,-80.96
8204.15,-68.15
8225.68,-48.77
8247.22,-46.19
8268.75,-56.11
8290.28,-76.98
8311.82,-85.96
8333.35,-80.88
8354.88,-59.08
8376.42,-55.57
8397.95,-64.32
8419.48,-87.06
8441.02,-90.73
8462.55,-79.87
8484.08,-53.92
8505.62,-49.55
8527.15,-57.21
8548.68,-83.46
8570.21,-90.96
8591.75,-83.78
8613.28,-51.42
8634.81,-46.11
8656.35,-52.83
8677.88,-85.49
8699.41,-94.09
8720.95,-93.86
8742.48,-57.13
8764.01,-50.88
8785.55,-56.58
8807.08,-94.01
8828.61,-95.65
8850.15,-87.14
8871.68,-58.69
8893.21,-51.42
8914.75,-56.19
8936.28,-84.32
8957.81,-94.01
8979.35,-88.07
9000.88,-63.93
9022.41,-55.64
9043.95,-59.47
9065.48,-82.76
9087.01,-89.56
9108.54,-80.88
9130.08,-59.24
9151.61,-49.78
9173.14,-52.75
9194.68,-73.15
9216.21,-85.42
9237.74,-82.84
9259.28,-63.69
9280.81,-53.14
9302.34,-55.17
9323.88,-73.30
9345.41,-86.74
9366.94,-83.38
9388.48,-65.33
9410.01,-53.53
9431.54,-54.71
9453.08,-70.80
9474.61,-85.81
9496.14,-88.23
9517.68,-71.98
9539.21,-58.77
9560.74,-59.08
9582.28,-73.46
9603.81,-89.79
9625.34,-87.53
9646.88,-71.27
9668.41,-56.42
9689.94,-55.88
9711.47,-68.69
9733.01,-85.57
9754.54,-91.43
9776.07,-79.32
9797.61,-62.91
9819.14,-61.50
9840.67,-72.99
9862.21,-90.73
9883.74,-90.65
9905.27,-77.37
9926.81,-58.69
9948.34,-56.42
9969.87,-66.66
9991.41,-86.59
10012.94,-90.81
10034.47,-78.93
10056.01,-57.75
10077.54,-54.63
10099.07,-63.77
10120.61,-86.20
10142.14,-93.62
10163.67,-83.46
10185.21,-58.85
10206.74,-54.86
10228.27,-62.83
10249.80,-88.00
10271.34,-96.36
10292.87,-89.09
10314.40,-59.55
10335.94,-54.55
10357.47,-61.50
10379.00,-91.36
10400.54,-100.58
10422.07,-104.01
10443.60,-68.62
10465.14,-62.75
10486.67,-68.77
10508.20,-108.16
10529.74,-102.22
10551.27,-92.53
10572.80,-61.82
10594.34,-54.94
10615.87,-60.02
10637.40,-90.50
10658.94,-100.58
10680.47,-92.84
10702.00,-66.51
10723.54,-58.53
10745.07,-62.68
10766.60,-87.14
10788.13,-95.42
10809.67,-88.46
10831.20,-66.27
10852.73,-57.28
10874.27,-60.49
10895.80,-81.90
10917.33,-89.25
10938.87,-80.10
10960.40,-59.71
10981.93,-49.47
11003.47,-51.89
11025.00,-70.65
11046.53,-83.15
11068.07,-79.48
11089.60,-61.27
11111.13,-49.86
11132.67,-51.35
11154.20,-68.07
11175.73,-82.60
11197.27,-84.01
11218.80,-67.37
11240.33,-54.55
11261.87,-55.17
11283.40,-70.10
11304.93,-84.40
11326.46,-80.49
11348.00,-64.55
11369.53,-50.33
11391.06,-50.10
11412.60,-63.38
11434.13,-79.40
11455.66,-79.32
11477.20,-64.86
11498.73,-48.92
11520.26,-47.83
11541.80,-59.79
11563.33,-77.76
11584.86,-82.53
11606.40,-69.47
11627.93,-51.58
11649.46,-49.63
11671.00,-60.25
11692.53,-79.56
11714.06,-85.03
11735.60,-73.77
11757.13,-53.69
11778.66,-50.80
11800.20,-60.33
11821.73,-82.06
11843.26,-92.29
11864.79,-90.89
11886.33,-67.68
11907.86,-63.93
11929.39,-72.29
11950.93,-94.95
11972.46,-97.22
11993.99,-86.82
12015.53,-59.24
12037.06,-54.63
12058.59,-61.97
12080.13,-90.11
12101.66,-100.11
12123.19,-103.31
12144.73,-69.47
12166.26,-63.85
12187.79,-70.18
12209.33,-104.01
12230.86,-99.95
12252.39,-90.57
12273.93,-56.89
12295.46,-50.25
12316.99,-55.64
12338.53,-88.78
12360.06,-95.11
12381.59,-87.68
12403.13,-60.80
12424.66,-53.22
12446.19,-57.68
12467.72,-84.09
12489.26,-93.86
12510.79,-88.62
12532.32,-65.72
12553.86,-57.05
12575.39,-60.64
12596.92,-83.23
12618.46,-93.93
12639.99,-85.34
12661.52,-64.00
12683.06,-54.16
12704.59,-56.82
12726.12,-76.20
12747.66,-86.74
12769.19,-80.02
12790.72,-61.11
12812.26,-50.17
12833.79,-51.97
12855.32,-69.40
12876.86,-83.85
12898.39,-91.36
12919.92,-80.57
12941.46,-68.54
12962.99,-69.47
12984.52,-85.03
13006.05,-99.48
13027.59,-97.29
13049.12,-81.35
13070.65,-67.68
13092.19,-67.76
13113.72,-81.74
13135.25,-95.65
13156.79,-87.14
13178.32,-71.35
13199.85,-55.96
13221.39,-55.17
13242.92,-67.60
13264.45,-84.56
13285.99,-86.90
13307.52,-73.69
13329.05,-56.58
13350.59,-54.86
13372.12,-66.04
13393.65,-84.95
13415.19,-89.48
13436.72,-76.98
13458.25,-57.60
13479.79,-55.02
13501.32,-64.94
13522.85,-85.49
13544.38,-92.53
13565.92,-83.31
13587.45,-61.43
13608.98,-57.99
13630.52,-66.82
13652.05,-90.18
13673.58,-100.03
13695.12,-92.84
13716.65,-66.82
13738.18,-62.44
13759.72,-70.18
13781.25,-96.98
13802.78,-104.41
13824.32,-95.58
13845.85,-63.15
13867.38,-57.83
13888.92,-64.55
13910.45,-97.29
13931.98,-106.36
13953.52,-102.22
13975.05,-63.69
13996.58,-57.44
14018.12,-63.15
14039.65,-100.03
14061.18,-103.31
14082.71,-95.50
14104.25,-67.29
14125.78,-60.10
14147.31,-64.86
14168.85,-93.15
14190.38,-104.56
14211.91,-110.11
14233.45,-90.11
14254.98,-81.90
14276.51,-85.65
14298.05,-106.36
14319.58,-104.17
14341.11,-94.64
14362.65,-72.84
14384.18,-63.46
14405.71,-66.35
14427.25,-86.82
14448.78,-99.33
14470.31,-97.92
14491.85,-79.01
14513.38,-68.46
14534.91,-70.57
14556.45,-88.78
14577.98,-102.53
14599.51,-96.36
14621.04,-77.99
14642.58,-66.11
14664.11,-67.29
14685.64,-83.23
14707.18,-92.61
14728.71,-84.40
14750.24,-67.52
14771.78,-54.24
14793.31,-54.63
14814.84,-69.01
14836.38,-84.71
14857.91,-88.85
14879.44,-74.71
14900.98,-60.10
14922.51,-59.55
14944.04,-72.52
14965.58,-89.71
14987.11,-90.65
15008.64,-75.80
15030.18,-59.24
15051.71,-57.83
15073.24,-69.40
15094.78,-87.84
15116.31,-89.09
15137.84,-75.10
15159.38,-56.42
15180.91,-54.16
15202.44,-64.47
15223.97,-84.09
15245.51,-89.17
15267.04,-78.15
15288.57,-57.21
15310.11,-54.00
15331.64,-63.22
15353.17,-85.65
15374.71,-95.34
15396.24,-93.00
15417.77,-69.16
15439.31,-65.10
15460.84,-73.15
15482.37,-97.84
15503.91,-103.00
15525.44,-93.70
15546.97,-64.16
15568.51,-59.24
15590.04,-66.27
15611.57,-96.20
15633.11,-103.94
15654.64,-103.08
15676.17,-61.04
15697.71,-55.17
15719.24,-61.19
15740.77,-102.22
15762.30,-102.22
15783.84,-93.93
15805.37,-63.54
15826.90,-56.66
15848.44,-61.74
15869.97,-92.61
15891.50,-98.00
15913.04,-88.15
15934.57,-62.21
15956.10,-54.24
15977.64,-58.38
15999.17,-83.23
16020.70,-93.07
16042.24,-87.06
16063.77,-64.86
16085.30,-55.80
16106.84,-59.08
16128.37,-80.49
16149.90,-90.89
16171.44,-83.78
16192.97,-63.46
16214.50,-53.30
16236.04,-55.64
16257.57,-74.48
16279.10,-87.76
16300.63,-89.32
16322.17,-72.13
16343.70,-60.80
16365.23,-62.29
16386.77,-79.09
16408.30,-93.62
16429.83,-94.01
16451.37,-77.13
16472.90,-64.40
16494.43,-65.02
16515.97,-79.87
16537.50,-93.39
16559.03,-88.00
16580.57,-71.98
16602.10,-57.75
16623.63,-57.52
16645.17,-70.88
16666.70,-86.82
16688.23,-85.49
16709.77,-70.65
16731.30,-54.78
16752.83,-53.69
16774.37,-65.72
16795.90,-83.54
16817.43,-90.18
16838.96,-79.16
16860.50,-61.50
16882.03,-59.55
16903.56,-70.33
16925.10,-90.03
16946.63,-99.64
16968.16,-94.72
16989.70,-74.71
17011.23,-71.90
17032.76,-81.51
17054.30,-103.00
17075.83,-105.50
17097.36,-92.61
17118.90,-69.32
17140.43,-65.57
17161.96,-74.01
17183.50,-97.92
17205.03,-105.58
17226.56,-96.83
17248.10,-69.24
17269.63,-64.63
17291.16,-71.98
17312.70,-99.56
17334.23,-106.59
17355.76,-101.05
17377.29,-65.57
17398.83,-59.94
17420.36,-66.35
17441.89,-102.37
17463.43,-110.11
17484.96,-103.78
17506.49,-70.49
17528.03,-63.93
17549.56,-69.32
17571.09,-101.83
17592.63,-103.62
17614.16,-94.40
17635.69,-67.37
17657.23,-59.79
17678.76,-64.24
17700.29,-90.57
17721.83,-97.22
17743.36,-88.70
17764.89,-65.26
17786.43,-56.58
17807.96,-60.18
17829.49,-82.45
17851.03,-90.11
17872.56,-81.74
17894.09,-60.80
17915.63,-51.03
17937.16,-53.69
17958.69,-73.46
17980.22,-87.37
18001.76,-91.20
18023.29,-72.05
18044.82,-60.96
18066.36,-62.75
18087.89,-79.95
18109.42,-90.73
18130.96,-83.93
18152.49,-66.35
18174.02,-54.16
18195.56,-55.02
18217.09,-70.57
18238.62,-85.42
18260.16,-87.45
18281.69,-72.13
18303.22,-58.46
18324.76,-58.53
18346.29,-72.44
18367.82,-88.31
18389.36,-87.14
18410.89,-71.90
18432.42,-56.58
18453.96,-55.80
18475.49,-68.22
18497.02,-85.26
18518.55,-88.39
18540.09,-75.26
18561.62,-58.22
18583.15,-56.50
18604.69,-67.68
18626.22,-86.90
18647.75,-96.43
18669.29,-90.50
18690.82,-71.19
18712.35,-68.69
18733.89,-78.62
18755.42,-99.40
18776.95,-102.92
18798.49,-90.03
18820.02,-67.83
18841.55,-64.40
18863.09,-73.15
18884.62,-95.73
18906.15,-101.05
18927.69,-90.73
18949.22,-65.02
18970.75,-60.64
18992.29,-68.38
19013.82,-94.72
19035.35,-103.31
19056.88,-98.00
19078.42,-65.80
19099.95,-60.57
19121.48,-67.21
19143.02,-98.86
19164.55,-105.11
19186.08,-99.33
19207.62,-61.58
19229.15,-55.33
19250.68,-61.04
19272.22,-99.17
19293.75,-105.42
19315.28,-99.25
19336.82,-71.04
19358.35,-63.85
19379.88,-68.62
19401.42,-96.98
19422.95,-100.42
19444.48,-90.81
19466.02,-66.11
19487.55,-57.83
19509.08,-61.74
19530.62,-85.42
19552.15,-96.12
19573.68,-90.57
19595.21,-68.93
19616.75,-59.63
19638.28,-62.60
19659.81,-83.15
19681.35,-95.26
19702.88,-90.65
19724.41,-71.12
19745.95,-60.57
19767.48,-62.68
19789.01,-80.73
19810.55,-93.86
19832.08,-91.98
19853.61,-74.48
19875.15,-62.68
19896.68,-63.93
19918.21,-80.10
19939.75,-95.11
19961.28,-97.14
19982.81,-80.81
20004.35,-67.60
20025.88,-67.99
20047.41,-82.37
20068.95,-96.98
20090.48,-93.07
20112.01,-77.45
20133.54,-62.75
20155.08,-62.21
20176.61,-75.18
20198.14,-92.37
20219.68,-98.39
20241.21,-84.87
20262.74,-68.38
20284.28,-66.97
20305.81,-78.54
20327.34,-96.36
20348.88,-99.17
20370.41,-86.59
20391.94,-68.15
20413.48,-65.88
20435.01,-76.20
20456.54,-96.36
20478.08,-100.50
20499.61,-87.92
20521.14,-66.82
20542.68,-63.69
20564.21,-72.84
20585.74,-94.87
20607.28,-101.98
20628.81,-92.53
20650.34,-68.22
20671.88,-64.24
20693.41,-72.29
20714.94,-96.83
20736.47,-101.44
20758.01,-91.67
20779.54,-62.29
20801.07,-57.36
20822.61,-64.40
20844.14,-94.09
20865.67,-103.55
20887.21,-108.08
20908.74,-74.71
20930.27,-68.85
20951.81,-74.95
20973.34,-111.28
20994.87,-105.58
21016.41,-95.65
21037.94,-64.71
21059.47,-57.83
21081.01,-62.91
21102.54,-93.15
21124.07,-97.29
21145.61,-87.92
21167.14,-62.29
21188.67,-54.32
21210.21,-58.53
21231.74,-83.62
21253.27,-95.65
21274.80,-102.06
21296.34,-89.79
21317.87,-81.27
21339.40,-84.48
21360.94,-101.67
21382.47,-100.81
21404.00,-91.36
21425.54,-71.12
21447.07,-60.96
21468.60,-63.38
21490.14,-82.29
21511.67,-95.26
21533.20,-89.79
21554.74,-71.12
21576.27,-59.79
21597.80,-61.27
21619.34,-78.07
21640.87,-92.61
21662.40,-94.79
21683.94,-78.31
21705.47,-65.57
21727.00,-66.04
21748.54,-77.99
21770.07,-93.15
21791.60,-87.92
21813.13,-71.98
21834.67,-57.83
21856.20,-57.68
21877.73,-70.96
21899.27,-87.45
21920.80,-90.18
21942.33,-75.88
21963.87,-60.10
21985.40,-58.07
22006.93,-63.54
22028.47,-81.12
22050.00,-92.06
