Frequency (Hz),Power (dB),44100.0000,2048,0,2.0000,0,L+R
0.00,-49.78
21.53,-55.80
43.07,-95.11
64.60,-87.76
86.13,-76.51
107.67,-44.39
129.20,-37.36
150.73,-42.44
172.27,-74.01
193.80,-82.76
215.33,-73.46
236.87,-47.13
258.40,-39.08
279.93,-43.22
301.46,-68.69
323.00,-80.42
344.53,-73.77
366.06,-50.80
387.60,-41.66
409.13,-44.94
430.66,-66.66
452.20,-78.62
473.73,-71.98
495.26,-51.35
516.80,-41.03
538.33,-43.37
559.86,-62.44
581.40,-76.98
602.93,-78.85
624.46,-59.94
646.00,-48.38
667.53,-49.86
689.06,-66.66
710.60,-80.49
732.13,-74.09
753.66,-56.50
775.20,-43.53
796.73,-44.08
818.26,-59.16
839.79,-74.16
861.33,-67.21
882.86,-50.72
904.39,-36.19
925.93,-35.95
947.46,-49.39
968.99,-66.66
990.53,-75.65
1012.06,-64.86
1033.59,-48.69
1055.13,-47.52
1076.66,-59.55
1098.19,-73.69
1119.73,-65.49
1141.26,-50.80
1162.79,-32.51
1184.33,-30.48
1205.86,-41.26
1227.39,-61.43
1248.93,-71.58
1270.46,-78.07
1291.99,-61.11
1313.53,-58.30
1335.06,-67.68
1356.59,-80.10
1378.13,-71.98
1399.66,-58.77
1421.19,-34.70
1442.72,-30.87
1464.26,-39.31
1485.79,-64.40
1507.32,-75.26
1528.86,-81.98
1550.39,-60.10
1571.92,-55.33
1593.46,-62.68
1614.99,-91.98
1636.52,-99.87
1658.06,-95.65
1679.59,-55.17
1701.12,-49.47
1722.66,-55.80
1744.19,-96.36
1765.72,-100.58
1787.26,-91.90
1808.79,-56.97
1830.32,-50.33
1851.86,-55.72
1873.39,-86.20
1894.92,-79.40
1916.46,-68.22
1937.99,-40.33
1959.52,-32.59
1981.05,-37.05
2002.59,-64.24
2024.12,-77.13
2045.65,-83.85
2067.19,-61.50
2088.72,-52.75
2110.25,-56.27
2131.79,-79.01
2153.32,-90.03
2174.85,-82.53
2196.39,-61.19
2217.92,-51.27
2239.45,-53.85
2260.99,-73.69
2282.52,-84.95
2304.05,-77.60
2325.59,-58.22
2347.12,-47.05
2368.65,-48.84
2390.19,-66.27
2411.72,-70.41
2433.25,-60.80
2454.79,-42.67
2476.32,-30.17
2497.85,-31.03
2519.38,-46.74
2540.92,-62.44
2562.45,-70.33
2583.98,-58.85
2605.52,-45.02
2627.05,-45.02
2648.58,-59.00
2670.12,-72.44
2691.65,-64.63
2713.18,-48.77
2734.72,-33.22
2756.25,-32.36
2777.78,-44.86
2799.32,-62.99
2820.85,-72.60
2842.38,-64.71
2863.92,-47.05
2885.45,-45.33
2906.98,-56.50
2928.52,-75.26
2950.05,-72.84
2971.58,-58.77
2993.12,-38.92
3014.65,-36.34
3036.18,-46.27
3057.71,-67.68
3079.25,-77.21
3100.78,-70.65
3122.31,-48.14
3143.85,-44.63
3165.38,-53.46
3186.91,-77.45
3208.45,-84.87
3229.98,-73.38
3251.51,-46.34
3273.05,-41.97
3294.58,-49.63
3316.11,-77.45
3337.65,-88.62
3359.18,-87.21
3380.71,-52.13
3402.25,-46.81
3423.78,-53.46
3445.31,-88.62
3466.85,-99.72
3488.38,-100.42
3509.91,-59.94
3531.45,-53.61
3552.98,-59.32
3574.51,-100.42
3596.04,-98.78
3617.58,-87.68
3639.11,-57.91
3660.64,-50.56
3682.18,-55.33
3703.71,-84.56
3725.24,-95.42
3746.78,-87.45
3768.31,-62.36
3789.84,-54.00
3811.38,-57.83
3832.91,-81.98
3854.44,-94.64
3875.98,-87.68
3897.51,-65.41
3919.04,-55.88
3940.58,-58.85
3962.11,-79.63
3983.64,-90.89
4005.18,-82.45
4026.71,-62.21
4048.24,-51.50
4069.78,-53.61
4091.31,-71.90
4112.84,-86.35
4134.38,-90.34
4155.91,-73.23
4177.44,-61.27
4198.97,-62.36
4220.51,-78.70
4242.04,-87.60
4263.57,-78.38
4285.11,-61.11
4306.64,-47.67
4328.17,-47.99
4349.71,-62.52
4371.24,-78.93
4392.77,-88.23
4414.31,-83.38
4435.84,-68.54
4457.37,-67.99
4478.91,-80.81
4500.44,-93.39
4521.97,-85.81
4543.51,-70.65
4565.04,-53.77
4586.57,-52.36
4608.11,-64.00
4629.64,-83.07
4651.17,-90.96
4672.71,-78.15
4694.24,-59.08
4715.77,-56.82
4737.30,-67.13
4758.84,-87.84
4780.37,-89.09
4801.90,-75.34
4823.44,-53.61
4844.97,-50.41
4866.50,-59.55
4888.04,-82.45
4909.57,-90.96
4931.10,-80.88
4952.64,-55.49
4974.17,-51.42
4995.70,-59.47
5017.24,-85.73
5038.77,-93.70
5060.30,-82.53
5081.84,-51.03
5103.37,-45.95
5124.90,-53.06
5146.44,-85.03
5167.97,-96.51
5189.50,-103.39
5211.04,-55.17
5232.57,-49.24
5254.10,-55.25
5275.63,-110.97
5297.17,-107.61
5318.70,-97.29
5340.23,-65.33
5361.77,-58.30
5383.30,-63.38
5404.83,-95.03
5426.37,-95.81
5447.90,-85.03
5469.43,-58.61
5490.97,-50.56
5512.50,-54.71
5534.03,-80.26
5555.57,-86.20
5577.10,-76.04
5598.63,-52.91
5620.17,-43.84
5641.70,-47.05
5663.23,-68.93
5684.77,-82.60
5706.30,-85.34
5727.83,-64.79
5749.37,-54.47
5770.90,-56.82
5792.43,-75.88
5813.96,-88.93
5835.50,-82.99
5857.03,-64.00
5878.56,-52.44
5900.10,-53.92
5921.63,-70.88
5943.16,-85.89
5964.70,-85.10
5986.23,-67.60
6007.76,-54.71
6029.30,-55.25
6050.83,-70.41
6072.36,-85.10
6093.90,-77.45
6115.43,-60.88
6136.96,-46.42
6158.50,-46.11
6180.03,-59.63
6201.56,-76.74
6223.10,-84.71
6244.63,-73.30
6266.16,-57.21
6287.70,-56.11
6309.23,-68.15
6330.76,-86.35
6352.29,-83.85
6373.83,-69.24
6395.36,-51.03
6416.89,-49.00
6438.43,-59.79
6459.96,-79.79
6481.49,-89.17
6503.03,-82.21
6524.56,-61.66
6546.09,-58.77
6567.63,-68.38
6589.16,-89.17
6610.69,-85.73
6632.23,-72.60
6653.76,-48.69
6675.29,-44.86
6696.83,-53.30
6718.36,-78.31
6739.89,-89.17
6761.43,-93.70
6782.96,-66.43
6804.49,-61.66
6826.03,-69.08
6847.56,-98.47
6869.09,-107.61
6890.63,-100.81
6912.16,-60.49
6933.69,-54.78
6955.22,-61.19
6976.76,-101.51
6998.29,-111.83
7019.82,-108.08
7041.36,-72.91
7062.89,-66.35
7084.42,-71.74
7105.96,-102.22
7127.49,-95.58
7149.02,-84.40
7170.56,-56.35
7192.09,-48.69
7213.62,-53.14
7235.16,-80.42
7256.69,-92.61
7278.22,-90.03
7299.76,-66.35
7321.29,-57.60
7342.82,-61.11
7364.36,-84.01
7385.89,-83.70
7407.42,-73.23
7428.96,-51.66
7450.49,-41.73
7472.02,-44.39
7493.55,-64.40
7515.09,-78.38
7536.62,-84.71
7558.15,-68.07
7579.69,-56.97
7601.22,-58.77
7622.75,-76.43
7644.29,-90.73
7665.82,-83.23
7687.35,-65.02
7708.89,-52.60
7730.42,-53.46
7751.95,-69.16
7773.49,-84.79
7795.02,-90.96
7816.55,-75.96
7838.09,-62.13
7859.62,-62.13
7881.15,-76.27
7902.69,-84.24
7924.22,-74.95
7945.75,-59.00
7967.29,-43.45
7988.82,-42.59
8010.35,-55.17
8031.88,-73.15
8053.42,-82.60
8074.95,-81.51
8096.48,-64.71
8118.02,-62.99
8139.55,-74.16
8161.08,-87.29
8182.62,-79.24
8204.15,-65.10
8225.68,-45.33
8247.22,-42.75
8268.75,-52.67
8290.28,-74.09
8311.82,-84.56
8333.35,-86.43
8354.88,-64.24
8376.42,-60.80
8397.95,-69.55
8419.48,-92.14
8441.02,-88.54
8462.55,-75.73
8484.08,-48.77
8505.62,-44.39
8527.15,-52.13
8548.68,-79.87
8570.21,-90.89
8591.75,-97.22
8613.28,-68.46
8634.81,-63.07
8656.35,-69.79
8677.88,-103.55
8699.41,-101.90
8720.95,-90.73
8742.48,-48.61
8764.01,-42.28
8785.55,-48.06
8807.08,-89.95
8828.61,-100.19
8850.15,-94.25
8871.68,-64.79
8893.21,-57.44
8914.75,-62.29
8936.28,-91.51
8957.81,-94.87
8979.35,-84.32
9000.88,-59.08
9022.41,-50.72
9043.95,-54.55
9065.48,-78.85
9087.01,-91.82
9108.54,-86.12
9130.08,-63.77
9151.61,-54.32
9173.14,-57.28
9194.68,-78.15
9216.21,-91.36
9237.74,-84.56
9259.28,-64.32
9280.81,-53.61
9302.34,-55.72
9323.88,-74.09
9345.41,-88.62
9366.94,-92.53
9388.48,-75.02
9410.01,-63.07
9431.54,-64.24
9453.08,-80.65
9474.61,-90.26
9496.14,-80.81
9517.68,-63.54
9539.21,-50.10
9560.74,-50.41
9582.28,-64.94
9603.81,-81.35
9625.34,-89.17
9646.88,-77.21
9668.41,-62.36
9689.94,-61.74
9711.47,-74.79
9733.01,-91.90
9754.54,-92.61
9776.07,-77.84
9797.61,-61.04
9819.14,-59.63
9840.67,-71.27
9862.21,-90.26
9883.74,-100.11
9905.27,-93.23
9926.81,-74.24
9948.34,-71.98
9969.87,-82.29
9991.41,-101.12
10012.94,-95.03
10034.47,-81.27
10056.01,-59.63
10077.54,-56.50
10099.07,-65.65
10120.61,-88.62
10142.14,-99.17
10163.67,-105.19
10185.21,-82.92
10206.74,-78.85
10228.27,-86.90
10249.80,-108.00
10271.34,-101.12
10292.87,-88.85
10314.40,-57.52
10335.94,-52.52
10357.47,-59.55
10379.00,-91.36
10400.54,-102.61
10422.07,-109.95
10443.60,-68.07
10465.14,-62.05
10486.67,-68.15
10508.20,-115.81
10529.74,-108.86
10551.27,-97.68
10572.80,-65.18
10594.34,-58.22
10615.87,-63.30
10637.40,-95.18
10658.94,-102.69
10680.47,-92.76
10702.00,-66.35
10723.54,-58.38
10745.07,-62.52
10766.60,-88.31
10788.13,-96.28
10809.67,-85.96
10831.20,-62.68
10852.73,-53.61
10874.27,-56.89
10895.80,-78.77
10917.33,-92.45
10938.87,-96.83
10960.40,-76.82
10981.93,-66.51
11003.47,-68.93
11025.00,-87.92
11046.53,-97.29
11068.07,-88.46
11089.60,-69.40
11111.13,-57.83
11132.67,-59.32
11154.20,-76.27
11175.73,-90.89
11197.27,-88.00
11218.80,-70.49
11240.33,-57.60
11261.87,-58.22
11283.40,-73.30
11304.93,-88.15
11326.46,-82.37
11348.00,-65.88
11369.53,-51.50
11391.06,-51.19
11412.60,-64.71
11434.13,-81.59
11455.66,-83.78
11477.20,-68.85
11498.73,-52.75
11520.26,-51.66
11541.80,-63.77
11563.33,-82.29
11584.86,-87.37
11606.40,-72.99
11627.93,-54.78
11649.46,-52.83
11671.00,-63.61
11692.53,-83.62
11714.06,-90.03
11735.60,-77.29
11757.13,-56.66
11778.66,-53.77
11800.20,-63.38
11821.73,-85.49
11843.26,-89.01
11864.79,-75.80
11886.33,-51.81
11907.86,-48.06
11929.39,-56.50
11950.93,-81.43
11972.46,-92.14
11993.99,-96.98
12015.53,-70.96
12037.06,-66.27
12058.59,-73.69
12080.13,-102.69
12101.66,-106.91
12123.19,-95.97
12144.73,-56.11
12166.26,-50.49
12187.79,-56.82
12209.33,-96.83
12230.86,-107.61
12252.39,-107.37
12273.93,-71.98
12295.46,-65.33
12316.99,-70.80
12338.53,-103.86
12360.06,-98.78
12381.59,-87.76
12403.13,-59.63
12424.66,-51.97
12446.19,-56.50
12467.72,-83.85
12489.26,-96.04
12510.79,-93.23
12532.32,-69.40
12553.86,-60.72
12575.39,-64.24
12596.92,-87.21
12618.46,-93.39
12639.99,-83.54
12661.52,-61.97
12683.06,-52.13
12704.59,-54.78
12726.12,-74.79
12747.66,-88.85
12769.19,-91.75
12790.72,-72.84
12812.26,-61.74
12833.79,-63.54
12855.32,-81.20
12876.86,-91.98
12898.39,-82.76
12919.92,-64.55
12941.46,-52.13
12962.99,-53.06
12984.52,-68.77
13006.05,-84.40
13027.59,-91.12
13049.12,-76.98
13070.65,-63.22
13092.19,-63.22
13113.72,-77.29
13135.25,-93.70
13156.79,-90.42
13178.32,-74.55
13199.85,-59.00
13221.39,-58.14
13242.92,-70.73
13264.45,-88.46
13285.99,-91.90
13307.52,-77.91
13329.05,-60.57
13350.59,-58.85
13372.12,-70.10
13393.65,-89.56
13415.19,-98.23
13436.72,-87.14
13458.25,-67.37
13479.79,-64.79
13501.32,-74.79
13522.85,-95.65
13544.38,-97.84
13565.92,-85.03
13587.45,-62.36
13608.98,-58.93
13630.52,-67.76
13652.05,-91.20
13673.58,-89.48
13695.12,-76.74
13716.65,-49.86
13738.18,-45.48
13759.72,-53.22
13781.25,-80.81
13802.78,-91.82
13824.32,-97.45
13845.85,-64.86
13867.38,-59.55
13888.92,-66.27
13910.45,-100.19
13931.98,-104.64
13953.52,-94.79
13975.05,-52.21
13996.58,-45.88
14018.12,-51.66
14039.65,-94.25
14061.18,-103.31
14082.71,-95.11
14104.25,-65.33
14125.78,-57.99
14147.31,-62.83
14168.85,-92.37
14190.38,-94.48
14211.91,-83.62
14233.45,-58.30
14254.98,-49.94
14276.51,-53.85
14298.05,-78.15
14319.58,-91.28
14341.11,-95.11
14362.65,-73.93
14384.18,-64.47
14405.71,-67.44
14427.25,-88.15
14448.78,-96.20
14470.31,-87.14
14491.85,-66.90
14513.38,-56.27
14534.91,-58.38
14556.45,-76.82
14577.98,-91.51
14599.51,-96.28
14621.04,-78.23
14642.58,-66.19
14664.11,-67.44
14685.64,-83.78
14707.18,-93.62
14728.71,-84.63
14750.24,-67.29
14771.78,-53.92
14793.31,-54.32
14814.84,-68.85
14836.38,-85.26
14857.91,-92.76
14879.44,-79.63
14900.98,-64.79
14922.51,-64.24
14944.04,-77.37
14965.58,-91.90
14987.11,-83.54
15008.64,-68.22
15030.18,-51.42
15051.71,-50.10
15073.24,-61.74
15094.78,-80.57
15116.31,-89.01
15137.84,-78.77
15159.38,-60.02
15180.91,-57.68
15202.44,-68.15
15223.97,-88.78
15245.51,-98.39
15267.04,-93.00
15288.57,-71.74
15310.11,-68.62
15331.64,-77.84
15353.17,-100.73
15374.71,-102.45
15396.24,-89.48
15417.77,-64.24
15439.31,-60.18
15460.84,-68.30
15482.37,-94.48
15503.91,-103.31
15525.44,-91.98
15546.97,-60.80
15568.51,-55.80
15590.04,-62.83
15611.57,-94.40
15633.11,-105.73
15654.64,-112.53
15676.17,-65.96
15697.71,-60.02
15719.24,-66.11
15740.77,-118.16
15762.30,-116.67
15783.84,-105.97
15805.37,-73.46
15826.90,-66.51
15848.44,-71.58
15869.97,-103.47
15891.50,-103.16
15913.04,-92.37
15934.57,-65.72
15956.10,-57.75
15977.64,-61.97
15999.17,-87.76
16020.70,-92.92
16042.24,-82.45
16063.77,-59.16
16085.30,-50.10
16106.84,-53.38
16128.37,-75.34
16149.90,-88.93
16171.44,-95.50
16192.97,-76.90
16214.50,-66.66
16236.04,-69.08
16257.57,-88.15
16279.10,-95.58
16300.63,-86.20
16322.17,-67.13
16343.70,-55.64
16365.23,-57.13
16386.77,-74.16
16408.30,-89.40
16429.83,-96.75
16451.37,-80.73
16472.90,-67.83
16494.43,-68.46
16515.97,-83.62
16537.50,-95.26
16559.03,-86.90
16580.57,-70.33
16602.10,-55.96
16623.63,-55.72
16645.17,-69.24
16666.70,-86.35
16688.23,-91.98
16709.77,-77.37
16731.30,-61.27
16752.83,-60.18
16774.37,-72.37
16795.90,-90.89
16817.43,-93.62
16838.96,-79.01
16860.50,-60.80
16882.03,-58.85
16903.56,-69.63
16925.10,-89.64
16946.63,-98.23
16968.16,-88.31
16989.70,-67.83
17011.23,-64.94
17032.76,-74.55
17054.30,-96.75
17075.83,-102.61
17097.36,-89.48
17118.90,-65.65
17140.43,-61.82
17161.96,-70.33
17183.50,-95.11
17205.03,-104.80
17226.56,-97.61
17248.10,-69.16
17269.63,-64.47
17291.16,-71.90
17312.70,-101.28
17334.23,-112.38
17355.76,-104.72
17377.29,-65.10
17398.83,-59.47
17420.36,-65.88
17441.89,-105.34
17463.43,-115.35
17484.96,-108.63
17506.49,-72.60
17528.03,-65.96
17549.56,-71.43
17571.09,-107.14
17592.63,-104.48
17614.16,-93.31
17635.69,-65.02
17657.23,-57.44
17678.76,-61.89
17700.29,-89.40
17721.83,-101.90
17743.36,-103.39
17764.89,-80.26
17786.43,-71.51
17807.96,-75.10
17829.49,-97.92
17851.03,-104.25
17872.56,-94.79
17894.09,-73.23
17915.63,-63.38
17937.16,-66.11
17958.69,-86.12
17980.22,-98.08
18001.76,-90.34
18023.29,-70.65
18044.82,-59.63
18066.36,-61.43
18087.89,-79.09
18109.42,-93.07
18130.96,-90.18
18152.49,-72.29
18174.02,-59.94
18195.56,-60.80
18217.09,-76.59
18238.62,-92.06
18260.16,-89.17
18281.69,-72.29
18303.22,-58.46
18324.76,-58.53
18346.29,-72.68
18367.82,-88.85
18389.36,-83.23
18410.89,-67.21
18432.42,-51.66
18453.96,-50.88
18475.49,-63.46
18497.02,-81.35
18518.55,-89.17
18540.09,-77.52
18561.62,-60.25
18583.15,-58.61
18604.69,-69.87
18626.22,-89.32
18647.75,-89.79
18669.29,-75.65
18690.82,-55.88
18712.35,-53.38
18733.89,-63.38
18755.42,-84.56
18776.95,-93.15
18798.49,-83.31
18820.02,-60.88
18841.55,-57.44
18863.09,-66.27
18884.62,-90.11
18906.15,-100.42
18927.69,-94.09
18949.22,-67.44
18970.75,-63.07
18992.29,-70.80
19013.82,-98.23
19035.35,-107.30
19056.88,-98.78
19078.42,-64.71
19099.95,-59.39
19121.48,-66.19
19143.02,-100.73
19164.55,-110.03
19186.08,-100.58
19207.62,-57.05
19229.15,-50.80
19250.68,-56.58
19272.22,-99.72
19293.75,-109.17
19315.28,-101.59
19336.82,-71.90
19358.35,-64.63
19379.88,-69.47
19401.42,-98.70
19422.95,-96.67
19444.48,-85.81
19466.02,-60.41
19487.55,-52.05
19509.08,-55.96
19530.62,-80.42
19552.15,-93.62
19573.68,-95.50
19595.21,-73.38
19616.75,-63.93
19638.28,-66.97
19659.81,-88.00
19681.35,-99.48
19702.88,-90.81
19724.41,-70.41
19745.95,-59.79
19767.48,-61.89
19789.01,-80.34
19810.55,-94.72
19832.08,-97.45
19853.61,-79.56
19875.15,-67.68
19896.68,-68.93
19918.21,-85.42
19939.75,-91.75
19961.28,-82.13
19982.81,-64.79
20004.35,-51.42
20025.88,-51.81
20047.41,-66.43
20068.95,-82.76
20090.48,-91.28
20112.01,-82.60
20133.54,-67.91
20155.08,-67.37
20176.61,-80.34
20198.14,-91.67
20219.68,-83.62
20241.21,-68.38
20262.74,-51.66
20284.28,-50.25
20305.81,-61.97
20327.34,-80.88
20348.88,-90.03
20370.41,-80.73
20391.94,-61.97
20413.48,-59.71
20435.01,-70.18
20456.54,-90.81
20478.08,-95.89
20499.61,-82.60
20521.14,-61.11
20542.68,-57.99
20564.21,-67.21
20585.74,-90.03
20607.28,-98.15
20628.81,-86.67
20650.34,-61.58
20671.88,-57.52
20693.41,-65.65
20714.94,-91.67
20736.47,-102.61
20758.01,-99.17
20779.54,-68.22
20801.07,-63.22
20822.61,-70.33
20844.14,-101.59
20865.67,-112.69
20887.21,-118.71
20908.74,-70.33
20930.27,-64.40
20951.81,-70.49
20973.34,-119.64
20994.87,-119.88
21016.41,-109.25
21037.94,-76.51
21059.47,-69.55
21081.01,-74.71
21102.54,-106.59
21124.07,-106.20
21145.61,-95.34
21167.14,-68.62
21188.67,-60.64
21210.21,-64.86
21231.74,-90.81
21253.27,-100.26
21274.80,-90.03
21296.34,-66.66
21317.87,-57.60
21339.40,-60.96
21360.94,-82.92
21382.47,-95.81
21404.00,-92.68
21425.54,-72.05
21447.07,-61.82
21468.60,-64.24
21490.14,-83.38
21511.67,-97.29
21533.20,-95.03
21554.74,-76.04
21576.27,-64.63
21597.80,-66.11
21619.34,-82.45
21640.87,-98.08
21662.40,-104.09
21683.94,-89.17
21705.47,-76.20
21727.00,-75.41
21748.54,-81.51
21770.07,-100.97
21791.60,-93.78
21813.13,-77.21
21834.67,-62.83
21856.20,-62.36
21877.73,-73.30
21899.27,-92.14
21920.80,-99.87
21942.33,-85.96
21963.87,-69.55
21985.40,-64.63
22006.93,-67.52
22028.47,-85.57
22050.00,-97.76
