Frequency (Hz),Power (dB),44100.0000,2048,0,2.0000,0,L+R
0.00,-37.59
21.53,-43.61
43.07,-83.54
64.60,-76.27
86.13,-64.86
107.67,-32.83
129.20,-25.79
150.73,-30.87
172.27,-62.52
193.80,-74.79
215.33,-78.62
236.87,-53.92
258.40,-45.95
279.93,-50.02
301.46,-75.65
323.00,-79.71
344.53,-69.08
366.06,-45.95
387.60,-36.81
409.13,-40.01
430.66,-61.89
452.20,-75.65
473.73,-81.98
495.26,-62.36
516.80,-52.05
538.33,-54.39
559.86,-73.46
581.40,-82.53
602.93,-72.91
624.46,-53.77
646.00,-42.20
667.53,-43.69
689.06,-60.57
710.60,-75.65
732.13,-81.20
753.66,-65.18
775.20,-52.28
796.73,-52.83
818.26,-67.99
839.79,-80.42
861.33,-71.66
882.86,-55.17
904.39,-40.64
925.93,-40.33
947.46,-53.85
968.99,-71.19
990.53,-79.09
1012.06,-65.02
1033.59,-48.69
1055.13,-47.59
1076.66,-59.63
1098.19,-78.15
1119.73,-87.60
1141.26,-78.93
1162.79,-60.57
1184.33,-58.61
1205.86,-69.32
1227.39,-89.40
1248.93,-94.01
1270.46,-80.49
1291.99,-59.63
1313.53,-56.74
1335.06,-66.27
1356.59,-88.46
1378.13,-98.08
1399.66,-89.48
1421.19,-65.49
1442.72,-61.66
1464.26,-70.10
1485.79,-95.18
1507.32,-103.70
1528.86,-92.53
1550.39,-63.38
1571.92,-58.69
1593.46,-66.04
1614.99,-95.73
1636.52,-107.06
1658.06,-113.63
1679.59,-75.26
1701.12,-69.63
1722.66,-75.96
1744.19,-115.81
1765.72,-115.11
1787.26,-104.09
1808.79,-68.62
1830.32,-61.89
1851.86,-67.29
1873.39,-102.69
1894.92,-107.77
1916.46,-96.75
1937.99,-68.77
1959.52,-61.11
1981.05,-65.57
2002.59,-92.76
2024.12,-105.58
2045.65,-102.76
2067.19,-78.70
2088.72,-69.94
2110.25,-73.46
2131.79,-96.36
2153.32,-109.72
2174.85,-110.81
2196.39,-89.71
2217.92,-79.79
2239.45,-82.45
2260.99,-102.30
2282.52,-114.41
2304.05,-106.91
2325.59,-87.37
2347.12,-76.27
2368.65,-77.99
2390.19,-95.65
2411.72,-108.23
2433.25,-99.72
2454.79,-81.59
2476.32,-69.08
2497.85,-69.94
2519.38,-85.65
2540.92,-101.59
2562.45,-103.78
2583.98,-86.90
2605.52,-72.91
2627.05,-72.99
2648.58,-86.90
2670.12,-103.70
2691.65,-112.61
2713.18,-105.19
2734.72,-89.87
2756.25,-89.01
2777.78,-101.51
2799.32,-119.41
2820.85,-119.49
2842.38,-104.72
2863.92,-87.14
2885.45,-85.42
2906.98,-96.59
2928.52,-116.13
2950.05,-120.74
2971.58,-107.06
2993.12,-87.21
3014.65,-84.63
3036.18,-94.56
3057.71,-115.81
3079.25,-116.44
3100.78,-103.16
3122.31,-80.26
3143.85,-76.82
3165.38,-85.57
3186.91,-109.64
3208.45,-118.00
3229.98,-106.20
3251.51,-79.01
3273.05,-74.63
3294.58,-82.37
3316.11,-110.11
3337.65,-121.21
3359.18,-118.47
3380.71,-83.38
3402.25,-78.07
3423.78,-84.71
3445.31,-119.96
3466.85,-130.97
3488.38,-130.82
3509.91,-89.87
3531.45,-83.54
3552.98,-89.25
3574.51,-128.32
3596.04,-122.85
3617.58,-111.67
3639.11,-81.98
3660.64,-74.63
3682.18,-79.40
3703.71,-108.70
3725.24,-117.38
3746.78,-107.06
3768.31,-81.90
3789.84,-73.46
3811.38,-77.29
3832.91,-101.51
3854.44,-113.78
3875.98,-106.20
3897.51,-83.85
3919.04,-74.32
3940.58,-77.29
3962.11,-98.15
3983.64,-111.52
4005.18,-106.20
4026.71,-85.96
4048.24,-75.26
4069.78,-77.29
4091.31,-95.65
4112.84,-109.95
4134.38,-105.81
4155.91,-87.21
4177.44,-75.26
4198.97,-76.43
4220.51,-92.68
4242.04,-108.16
4263.57,-107.92
4285.11,-90.65
4306.64,-77.21
4328.17,-77.52
4349.71,-92.06
4371.24,-108.47
4392.77,-110.50
4414.31,-94.56
4435.84,-79.56
4457.37,-78.93
4478.91,-91.98
4500.44,-109.48
4521.97,-111.13
4543.51,-96.04
4565.04,-79.24
4586.57,-77.76
4608.11,-89.40
4629.64,-108.47
4651.17,-111.99
4672.71,-97.76
4694.24,-78.70
4715.77,-76.43
4737.30,-86.74
4758.84,-107.53
4780.37,-115.42
4801.90,-102.92
4823.44,-81.12
4844.97,-77.91
4866.50,-87.06
4888.04,-110.11
4909.57,-119.33
4931.10,-108.70
4952.64,-83.23
4974.17,-79.09
4995.70,-87.21
5017.24,-113.47
5038.77,-123.94
5060.30,-116.99
5081.84,-85.49
5103.37,-80.42
5124.90,-87.45
5146.44,-119.33
5167.97,-130.51
5189.50,-137.07
5211.04,-88.54
5232.57,-82.60
5254.10,-88.62
5275.63,-142.46
5297.17,-135.90
5318.70,-124.41
5340.23,-92.14
5361.77,-85.10
5383.30,-90.18
5404.83,-122.07
5426.37,-129.96
5447.90,-119.72
5469.43,-93.23
5490.97,-85.18
5512.50,-89.32
5534.03,-114.95
5555.57,-126.75
5577.10,-118.55
5598.63,-95.42
5620.17,-86.28
5641.70,-89.56
5663.23,-111.44
5684.77,-124.88
5706.30,-120.97
5727.83,-100.11
5749.37,-89.79
5770.90,-92.14
5792.43,-111.28
5813.96,-125.50
5835.50,-124.02
5857.03,-105.03
5878.56,-93.47
5900.10,-94.95
5921.63,-111.91
5943.16,-126.99
5964.70,-127.69
5986.23,-110.19
6007.76,-97.22
6029.30,-97.84
6050.83,-112.92
6072.36,-128.79
6093.90,-131.37
6115.43,-115.50
6136.96,-101.12
6158.50,-100.81
6180.03,-114.33
6201.56,-130.97
6223.10,-129.02
6244.63,-113.63
6266.16,-97.45
6287.70,-96.36
6309.23,-108.39
6330.76,-126.83
6352.29,-128.08
6373.83,-113.47
6395.36,-95.26
6416.89,-93.23
6438.43,-104.01
6459.96,-124.18
6481.49,-130.82
6503.03,-117.85
6524.56,-97.14
6546.09,-94.25
6567.63,-103.78
6589.16,-125.97
6610.69,-131.05
6632.23,-118.24
6653.76,-94.17
6675.29,-90.34
6696.83,-98.78
6718.36,-123.86
6739.89,-132.54
6761.43,-121.28
6782.96,-92.21
6804.49,-87.53
6826.03,-94.95
6847.56,-124.41
6869.09,-135.43
6890.63,-133.87
6912.16,-93.62
6933.69,-88.00
6955.22,-94.32
6976.76,-134.73
6998.29,-140.20
7019.82,-129.57
7041.36,-93.86
7062.89,-87.21
7084.42,-92.61
7105.96,-128.32
7127.49,-133.08
7149.02,-122.14
7170.56,-94.09
7192.09,-86.43
7213.62,-90.89
7235.16,-118.24
7256.69,-129.10
7278.22,-119.96
7299.76,-95.81
7321.29,-87.06
7342.82,-90.65
7364.36,-113.63
7385.89,-126.29
7407.42,-119.80
7428.96,-98.23
7450.49,-88.39
7472.02,-91.04
7493.55,-111.05
7515.09,-124.57
7536.62,-119.02
7558.15,-99.40
7579.69,-88.23
7601.22,-90.03
7622.75,-107.69
7644.29,-122.30
7665.82,-118.55
7687.35,-100.42
7708.89,-87.92
7730.42,-88.85
7751.95,-104.56
7773.49,-120.27
7795.02,-119.96
7816.55,-103.08
7838.09,-89.17
7859.62,-89.17
7881.15,-103.16
7902.69,-120.03
7924.22,-122.77
7945.75,-107.14
7967.29,-91.59
7988.82,-90.73
8010.35,-103.31
8031.88,-121.36
8053.42,-124.80
8074.95,-110.11
8096.48,-92.61
8118.02,-90.89
8139.55,-102.06
8161.08,-121.68
8182.62,-128.24
8204.15,-114.72
8225.68,-94.87
8247.22,-92.29
8268.75,-102.22
8290.28,-123.63
8311.82,-132.85
8333.35,-122.38
8354.88,-99.56
8376.42,-96.12
8397.95,-104.87
8419.48,-128.79
8441.02,-138.40
8462.55,-129.96
8484.08,-103.08
8505.62,-98.70
8527.15,-106.44
8548.68,-134.10
8570.21,-144.57
8591.75,-138.63
8613.28,-103.94
8634.81,-98.62
8656.35,-105.34
8677.88,-140.51
8699.41,-151.53
8720.95,-149.49
8742.48,-107.53
8764.01,-101.20
8785.55,-106.91
8807.08,-148.40
8828.61,-152.85
8850.15,-142.93
8871.68,-113.16
8893.21,-105.81
8914.75,-110.58
8936.28,-139.80
8957.81,-145.35
8979.35,-135.04
9000.88,-109.88
9022.41,-101.44
9043.95,-105.34
9065.48,-129.57
9087.01,-141.45
9108.54,-134.10
9130.08,-111.91
9151.61,-102.45
9173.14,-105.42
9194.68,-126.29
9216.21,-137.93
9237.74,-129.57
9259.28,-109.41
9280.81,-98.70
9302.34,-100.81
9323.88,-119.25
9345.41,-133.16
9366.94,-126.83
9388.48,-108.16
9410.01,-96.20
9431.54,-97.37
9453.08,-113.70
9474.61,-128.94
9496.14,-125.58
9517.68,-108.23
9539.21,-94.79
9560.74,-95.11
9582.28,-109.72
9603.81,-126.05
9625.34,-125.97
9646.88,-109.88
9668.41,-94.87
9689.94,-94.32
9711.47,-107.37
9733.01,-124.96
9754.54,-126.13
9776.07,-110.97
9797.61,-94.17
9819.14,-92.76
9840.67,-104.41
9862.21,-123.47
9883.74,-126.99
9905.27,-112.69
9926.81,-93.70
9948.34,-91.43
9969.87,-101.83
9991.41,-122.53
10012.94,-129.80
10034.47,-117.06
10056.01,-95.34
10077.54,-92.14
10099.07,-101.36
10120.61,-124.33
10142.14,-132.62
10163.67,-121.13
10185.21,-95.73
10206.74,-91.67
10228.27,-99.79
10249.80,-125.97
10271.34,-136.05
10292.87,-127.38
10314.40,-96.04
10335.94,-90.96
10357.47,-98.08
10379.00,-129.80
10400.54,-141.13
10422.07,-147.54
10443.60,-96.75
10465.14,-90.73
10486.67,-96.83
10508.20,-147.70
10529.74,-141.76
10551.27,-130.51
10572.80,-98.08
10594.34,-91.12
10615.87,-96.20
10637.40,-128.32
10658.94,-135.98
10680.47,-125.66
10702.00,-99.09
10723.54,-91.12
10745.07,-95.26
10766.60,-121.05
10788.13,-132.38
10809.67,-123.63
10831.20,-100.42
10852.73,-91.36
10874.27,-94.56
10895.80,-116.60
10917.33,-129.72
10938.87,-123.63
10960.40,-102.69
10981.93,-92.45
11003.47,-94.79
11025.00,-114.02
11046.53,-128.08
11068.07,-124.64
11089.60,-105.50
11111.13,-93.93
11132.67,-95.42
11154.20,-112.45
11175.73,-127.46
11197.27,-125.97
11218.80,-108.31
11240.33,-95.42
11261.87,-96.04
11283.40,-111.20
11304.93,-127.22
11326.46,-127.46
11348.00,-110.97
11369.53,-96.59
11391.06,-96.36
11412.60,-109.88
11434.13,-127.07
11455.66,-130.97
11477.20,-115.74
11498.73,-99.56
11520.26,-98.39
11541.80,-110.50
11563.33,-129.02
11584.86,-133.79
11606.40,-119.57
11627.93,-101.36
11649.46,-99.33
11671.00,-110.19
11692.53,-130.19
11714.06,-137.30
11735.60,-124.33
11757.13,-103.62
11778.66,-100.81
11800.20,-110.34
11821.73,-132.46
11843.26,-141.99
11864.79,-132.30
11886.33,-108.39
11907.86,-104.64
11929.39,-113.08
11950.93,-138.01
11972.46,-148.56
11993.99,-144.65
12015.53,-115.97
12037.06,-111.20
12058.59,-118.63
12080.13,-147.85
12101.66,-158.25
12123.19,-156.68
12144.73,-117.22
12166.26,-111.59
12187.79,-118.00
12209.33,-157.00
12230.86,-162.15
12252.39,-154.65
12273.93,-118.86
12295.46,-112.30
12316.99,-117.69
12338.53,-152.62
12360.06,-152.15
12381.59,-141.45
12403.13,-113.39
12424.66,-105.73
12446.19,-110.27
12467.72,-137.62
12489.26,-146.06
12510.79,-136.21
12532.32,-112.06
12553.86,-103.39
12575.39,-106.91
12596.92,-130.04
12618.46,-141.60
12639.99,-132.85
12661.52,-111.28
12683.06,-101.36
12704.59,-104.09
12726.12,-124.18
12747.66,-137.69
12769.19,-131.91
12790.72,-112.14
12812.26,-101.05
12833.79,-102.84
12855.32,-120.50
12876.86,-135.04
12898.39,-130.90
12919.92,-112.69
12941.46,-100.26
12962.99,-101.20
12984.52,-116.91
13006.05,-132.54
13027.59,-130.51
13049.12,-113.63
13070.65,-99.72
13092.19,-99.79
13113.72,-113.86
13135.25,-130.66
13156.79,-131.99
13178.32,-116.21
13199.85,-100.65
13221.39,-99.79
13242.92,-112.38
13264.45,-130.43
13285.99,-133.71
13307.52,-118.94
13329.05,-101.44
13350.59,-99.79
13372.12,-110.97
13393.65,-130.51
13415.19,-134.41
13436.72,-120.50
13458.25,-100.73
13479.79,-98.15
13501.32,-108.16
13522.85,-129.49
13544.38,-136.76
13565.92,-124.18
13587.45,-101.44
13608.98,-98.00
13630.52,-106.83
13652.05,-130.74
13673.58,-139.96
13695.12,-129.26
13716.65,-102.30
13738.18,-97.92
13759.72,-105.73
13781.25,-133.32
13802.78,-144.18
13824.32,-137.85
13845.85,-103.23
13867.38,-97.92
13888.92,-104.64
13910.45,-139.34
13931.98,-150.12
13953.52,-147.93
13975.05,-105.66
13996.58,-99.33
14018.12,-105.11
14039.65,-147.62
14061.18,-148.95
14082.71,-138.01
14104.25,-108.00
14125.78,-100.73
14147.31,-105.50
14168.85,-135.12
14190.38,-145.82
14211.91,-136.60
14233.45,-111.28
14254.98,-102.92
14276.51,-106.83
14298.05,-131.21
14319.58,-143.63
14341.11,-136.44
14362.65,-114.02
14384.18,-104.48
14405.71,-107.45
14427.25,-128.47
14448.78,-141.60
14470.31,-135.66
14491.85,-115.35
14513.38,-104.72
14534.91,-106.75
14556.45,-125.19
14577.98,-139.65
14599.51,-138.63
14621.04,-120.11
14642.58,-108.16
14664.11,-109.41
14685.64,-125.74
14707.18,-141.13
14728.71,-142.15
14750.24,-125.11
14771.78,-111.75
14793.31,-112.06
14814.84,-126.75
14836.38,-143.16
14857.91,-144.02
14879.44,-127.85
14900.98,-112.84
14922.51,-112.38
14944.04,-125.35
14965.58,-142.77
14987.11,-151.29
15008.64,-142.62
15030.18,-126.21
15051.71,-124.72
15073.24,-136.52
15094.78,-150.90
15116.31,-142.70
15137.84,-128.24
15159.38,-109.25
15180.91,-106.98
15202.44,-117.38
15223.97,-138.09
15245.51,-143.56
15267.04,-130.35
15288.57,-108.70
15310.11,-105.58
15331.64,-114.80
15353.17,-137.69
15374.71,-144.26
15396.24,-131.91
15417.77,-106.67
15439.31,-102.61
15460.84,-110.74
15482.37,-136.91
15503.91,-147.07
15525.44,-137.77
15546.97,-106.59
15568.51,-101.59
15590.04,-108.63
15611.57,-140.20
15633.11,-151.60
15654.64,-157.54
15676.17,-106.28
15697.71,-100.34
15719.24,-106.36
15740.77,-156.06
15762.30,-150.90
15783.84,-139.96
15805.37,-107.37
15826.90,-100.42
15848.44,-105.50
15869.97,-137.77
15891.50,-144.57
15913.04,-134.10
15934.57,-107.45
15956.10,-99.48
15977.64,-103.70
15999.17,-129.57
16020.70,-140.27
16042.24,-130.90
16063.77,-107.61
16085.30,-98.54
16106.84,-101.83
16128.37,-123.86
16149.90,-136.60
16171.44,-129.33
16192.97,-108.39
16214.50,-98.15
16236.04,-100.50
16257.57,-119.80
16279.10,-133.71
16300.63,-129.26
16322.17,-110.03
16343.70,-98.54
16365.23,-100.03
16386.77,-117.06
16408.30,-132.15
16429.83,-130.43
16451.37,-112.69
16472.90,-99.87
16494.43,-100.50
16515.97,-115.66
16537.50,-131.68
16559.03,-130.74
16580.57,-114.25
16602.10,-99.79
16623.63,-99.56
16645.17,-113.16
16666.70,-130.35
16688.23,-131.91
16709.77,-116.44
16731.30,-100.34
16752.83,-99.25
16774.37,-111.36
16795.90,-129.80
16817.43,-133.79
16838.96,-119.41
16860.50,-101.20
16882.03,-99.25
16903.56,-110.11
16925.10,-130.11
16946.63,-136.52
16968.16,-123.32
16989.70,-102.69
17011.23,-99.87
17032.76,-109.48
17054.30,-131.60
17075.83,-139.88
17097.36,-127.93
17118.90,-104.01
17140.43,-100.26
17161.96,-108.78
17183.50,-133.63
17205.03,-143.71
17226.56,-134.73
17248.10,-105.89
17269.63,-101.28
17291.16,-108.70
17312.70,-137.85
17334.23,-148.79
17355.76,-146.45
17377.29,-107.06
17398.83,-101.51
17420.36,-107.92
17441.89,-147.23
17463.43,-155.67
17484.96,-146.45
17506.49,-110.34
17528.03,-103.70
17549.56,-109.17
17571.09,-145.51
17592.63,-152.15
17614.16,-141.37
17635.69,-113.16
17657.23,-105.50
17678.76,-110.03
17700.29,-137.69
17721.83,-147.46
17743.36,-137.54
17764.89,-113.24
17786.43,-104.56
17807.96,-108.08
17829.49,-131.29
17851.03,-144.42
17872.56,-141.13
17894.09,-119.49
17915.63,-109.64
17937.16,-112.38
17958.69,-132.46
17980.22,-146.06
18001.76,-141.29
18023.29,-121.60
18044.82,-110.58
18066.36,-112.38
18087.89,-130.11
18109.42,-144.96
18130.96,-153.25
18152.49,-141.84
18174.02,-129.49
18195.56,-130.43
18217.09,-145.98
18238.62,-153.79
18260.16,-145.12
18281.69,-128.32
18303.22,-114.49
18324.76,-114.49
18346.29,-128.63
18367.82,-145.12
18389.36,-143.71
18410.89,-127.93
18432.42,-112.45
18453.96,-111.59
18475.49,-124.25
18497.02,-142.23
18518.55,-144.34
18540.09,-129.41
18561.62,-111.99
18583.15,-110.34
18604.69,-121.60
18626.22,-140.98
18647.75,-144.34
18669.29,-130.43
18690.82,-110.74
18712.35,-108.16
18733.89,-118.16
18755.42,-139.49
18776.95,-147.31
18798.49,-135.04
18820.02,-112.45
18841.55,-109.02
18863.09,-117.85
18884.62,-141.76
18906.15,-149.73
18927.69,-137.85
18949.22,-110.97
18970.75,-106.67
18992.29,-114.41
19013.82,-141.91
19035.35,-152.54
19056.88,-146.13
19078.42,-111.83
19099.95,-106.52
19121.48,-113.24
19143.02,-147.54
19164.55,-157.78
19186.08,-153.64
19207.62,-110.81
19229.15,-104.56
19250.68,-110.34
19272.22,-153.40
19293.75,-151.76
19315.28,-140.66
19336.82,-110.50
19358.35,-103.23
19379.88,-108.08
19401.42,-137.85
19422.95,-147.70
19444.48,-137.69
19466.02,-112.22
19487.55,-103.94
19509.08,-107.84
19530.62,-132.30
19552.15,-144.49
19573.68,-136.68
19595.21,-114.17
19616.75,-104.72
19638.28,-107.77
19659.81,-128.79
19681.35,-142.15
19702.88,-136.91
19724.41,-116.60
19745.95,-105.97
19767.48,-108.08
19789.01,-126.60
19810.55,-140.90
19832.08,-137.07
19853.61,-118.39
19875.15,-106.44
19896.68,-107.69
19918.21,-124.10
19939.75,-139.49
19961.28,-138.95
19982.81,-121.60
20004.35,-108.23
20025.88,-108.63
20047.41,-123.24
20068.95,-139.65
20090.48,-140.59
20112.01,-124.41
20133.54,-109.48
20155.08,-109.02
20176.61,-122.07
20198.14,-139.57
20219.68,-142.70
20241.21,-127.69
20262.74,-110.97
20284.28,-109.64
20305.81,-121.36
20327.34,-140.27
20348.88,-147.62
20370.41,-134.26
20391.94,-115.42
20413.48,-113.16
20435.01,-123.55
20456.54,-144.26
20478.08,-152.46
20499.61,-140.43
20521.14,-118.86
20542.68,-115.66
20564.21,-124.96
20585.74,-147.70
20607.28,-157.00
20628.81,-146.68
20650.34,-121.52
20671.88,-117.53
20693.41,-125.66
20714.94,-151.37
20736.47,-161.68
20758.01,-158.87
20779.54,-128.47
20801.07,-123.47
20822.61,-130.58
20844.14,-159.65
20865.67,-170.05
20887.21,-173.09
20908.74,-127.15
20930.27,-121.21
20951.81,-127.30
20973.34,-166.14
20994.87,-162.15
21016.41,-151.37
21037.94,-118.71
21059.47,-111.83
21081.01,-116.99
21102.54,-148.01
21124.07,-156.68
21145.61,-147.07
21167.14,-120.35
21188.67,-112.45
21210.21,-116.60
21231.74,-142.46
21253.27,-152.62
21274.80,-143.01
21296.34,-119.64
21317.87,-110.58
21339.40,-113.86
21360.94,-135.66
21382.47,-148.01
21404.00,-140.12
21425.54,-119.10
21447.07,-108.94
21468.60,-111.28
21490.14,-130.19
21511.67,-144.34
21533.20,-138.40
21554.74,-119.17
21576.27,-107.69
21597.80,-109.17
21619.34,-125.19
21640.87,-141.21
21662.40,-137.30
21683.94,-119.49
21705.47,-106.59
21727.00,-107.06
21748.54,-120.11
21770.07,-138.24
21791.60,-138.40
21813.13,-121.83
21834.67,-107.37
21856.20,-106.67
21877.73,-115.27
21899.27,-135.04
21920.80,-139.34
21942.33,-124.02
21963.87,-107.77
21985.40,-105.42
22006.93,-110.27
22028.47,-128.40
22050.00,-140.90
