Frequency (Hz),Power (dB),44100.0000,2048,0,2.0000,0,L+R
0.00,-36.89
21.53,-42.98
43.07,-76.98
64.60,-69.63
86.13,-58.30
107.67,-26.18
129.20,-19.15
150.73,-24.23
172.27,-55.96
193.80,-68.22
215.33,-76.04
236.87,-59.39
258.40,-51.35
279.93,-55.49
301.46,-79.95
323.00,-83.07
344.53,-73.15
366.06,-50.25
387.60,-41.03
409.13,-44.31
430.66,-66.11
452.20,-79.56
473.73,-86.82
495.26,-70.49
516.80,-60.25
538.33,-62.60
559.86,-81.20
581.40,-89.64
602.93,-81.20
624.46,-62.44
646.00,-50.88
667.53,-52.36
689.06,-69.16
710.60,-84.24
732.13,-92.76
753.66,-88.15
775.20,-75.80
796.73,-76.35
818.26,-91.12
839.79,-93.62
861.33,-84.56
882.86,-68.15
904.39,-53.69
925.93,-53.38
947.46,-66.82
968.99,-83.93
990.53,-92.21
1012.06,-80.88
1033.59,-64.71
1055.13,-63.54
1076.66,-75.57
1098.19,-93.39
1119.73,-95.58
1141.26,-81.98
1162.79,-63.85
1184.33,-61.74
1205.86,-72.52
1227.39,-92.21
1248.93,-98.54
1270.46,-86.98
1291.99,-66.43
1313.53,-63.54
1335.06,-73.07
1356.59,-94.72
1378.13,-97.22
1399.66,-84.71
1421.19,-60.72
1442.72,-56.89
1464.26,-65.33
1485.79,-90.34
1507.32,-100.89
1528.86,-103.62
1550.39,-75.88
1571.92,-71.19
1593.46,-78.54
1614.99,-107.22
1636.52,-115.58
1658.06,-108.47
1679.59,-68.46
1701.12,-62.83
1722.66,-69.16
1744.19,-109.48
1765.72,-114.10
1787.26,-103.94
1808.79,-68.69
1830.32,-62.05
1851.86,-67.44
1873.39,-102.53
1894.92,-108.08
1916.46,-97.68
1937.99,-69.87
1959.52,-62.21
1981.05,-66.58
2002.59,-93.78
2024.12,-106.20
2045.65,-103.86
2067.19,-80.18
2088.72,-71.43
2110.25,-74.95
2131.79,-97.76
2153.32,-103.23
2174.85,-93.15
2196.39,-71.66
2217.92,-61.74
2239.45,-64.32
2260.99,-84.24
2282.52,-97.84
2304.05,-95.58
2325.59,-76.27
2347.12,-65.10
2368.65,-66.90
2390.19,-84.40
2411.72,-99.09
2433.25,-103.78
2454.79,-87.14
2476.32,-74.63
2497.85,-75.49
2519.38,-91.12
2540.92,-104.72
2562.45,-97.14
2583.98,-80.26
2605.52,-66.35
2627.05,-66.35
2648.58,-80.34
2670.12,-96.75
2691.65,-95.18
2713.18,-79.56
2734.72,-63.93
2756.25,-63.07
2777.78,-75.57
2799.32,-93.54
2820.85,-102.22
2842.38,-92.06
2863.92,-74.63
2885.45,-72.91
2906.98,-84.09
2928.52,-103.47
2950.05,-108.47
2971.58,-95.18
2993.12,-75.34
3014.65,-72.76
3036.18,-82.68
3057.71,-103.47
3079.25,-103.39
3100.78,-90.42
3122.31,-67.68
3143.85,-64.16
3165.38,-72.91
3186.91,-96.90
3208.45,-106.36
3229.98,-97.37
3251.51,-70.33
3273.05,-65.88
3294.58,-73.62
3316.11,-101.44
3337.65,-112.53
3359.18,-116.99
3380.71,-83.31
3402.25,-77.91
3423.78,-84.63
3445.31,-118.94
3466.85,-124.18
3488.38,-114.49
3509.91,-73.15
3531.45,-66.82
3552.98,-72.52
3574.51,-113.63
3596.04,-114.25
3617.58,-103.23
3639.11,-73.38
3660.64,-66.04
3682.18,-70.80
3703.71,-100.03
3725.24,-112.06
3746.78,-108.00
3768.31,-83.07
3789.84,-74.71
3811.38,-78.54
3832.91,-102.69
3854.44,-111.20
3875.98,-101.12
3897.51,-78.85
3919.04,-69.32
3940.58,-72.21
3962.11,-93.07
3983.64,-105.34
4005.18,-98.08
4026.71,-77.91
4048.24,-67.21
4069.78,-69.32
4091.31,-87.60
4112.84,-101.90
4134.38,-102.61
4155.91,-84.56
4177.44,-72.52
4198.97,-73.69
4220.51,-90.03
4242.04,-105.42
4263.57,-110.97
4285.11,-94.64
4306.64,-81.20
4328.17,-81.51
4349.71,-95.97
4371.24,-108.23
4392.77,-100.11
4414.31,-84.01
4435.84,-69.01
4457.37,-68.46
4478.91,-81.43
4500.44,-98.94
4521.97,-102.92
4543.51,-88.54
4565.04,-71.66
4586.57,-70.26
4608.11,-81.82
4629.64,-100.81
4651.17,-110.42
4672.71,-109.25
4694.24,-91.04
4715.77,-88.78
4737.30,-99.09
4758.84,-116.52
4780.37,-110.66
4801.90,-97.22
4823.44,-75.49
4844.97,-72.29
4866.50,-81.51
4888.04,-104.33
4909.57,-110.03
4931.10,-98.00
4952.64,-72.60
4974.17,-68.46
4995.70,-76.59
5017.24,-102.84
5038.77,-113.70
5060.30,-112.30
5081.84,-81.12
5103.37,-76.04
5124.90,-83.07
5146.44,-114.88
5167.97,-125.74
5189.50,-132.15
5211.04,-82.21
5232.57,-76.20
5254.10,-82.29
5275.63,-128.55
5297.17,-121.44
5318.70,-110.03
5340.23,-77.68
5361.77,-70.73
5383.30,-75.80
5404.83,-107.53
5426.37,-115.66
5447.90,-106.05
5469.43,-79.63
5490.97,-71.58
5512.50,-75.73
5534.03,-101.36
5555.57,-114.17
5577.10,-121.75
5598.63,-112.38
5620.17,-103.47
5641.70,-106.75
5663.23,-120.11
5684.77,-114.10
5706.30,-103.86
5727.83,-83.07
5749.37,-72.76
5770.90,-75.10
5792.43,-94.17
5813.96,-107.61
5835.50,-102.92
5857.03,-84.01
5878.56,-72.44
5900.10,-73.93
5921.63,-90.89
5943.16,-105.81
5964.70,-108.16
5986.23,-91.20
6007.76,-78.31
6029.30,-78.93
6050.83,-94.01
6072.36,-109.88
6093.90,-110.27
6115.43,-94.09
6136.96,-79.63
6158.50,-79.40
6180.03,-92.84
6201.56,-109.09
6223.10,-104.95
6244.63,-89.56
6266.16,-73.38
6287.70,-72.29
6309.23,-84.32
6330.76,-102.69
6352.29,-108.78
6373.83,-95.50
6395.36,-77.29
6416.89,-75.26
6438.43,-86.04
6459.96,-106.12
6481.49,-115.89
6503.03,-113.55
6524.56,-93.47
6546.09,-90.57
6567.63,-100.11
6589.16,-119.64
6610.69,-114.64
6632.23,-101.59
6653.76,-77.60
6675.29,-73.77
6696.83,-82.21
6718.36,-107.22
6739.89,-116.13
6761.43,-105.73
6782.96,-76.74
6804.49,-72.05
6826.03,-79.40
6847.56,-108.94
6869.09,-119.96
6890.63,-124.88
6912.16,-87.29
6933.69,-81.67
6955.22,-88.00
6976.76,-127.93
6998.29,-131.83
7019.82,-121.52
7041.36,-85.81
7062.89,-79.16
7084.42,-84.56
7105.96,-119.33
7127.49,-118.94
7149.02,-108.08
7170.56,-80.10
7192.09,-72.44
7213.62,-76.90
7235.16,-104.17
7256.69,-115.35
7278.22,-107.84
7299.76,-83.85
7321.29,-75.10
7342.82,-78.70
7364.36,-101.67
7385.89,-114.95
7407.42,-118.86
7428.96,-98.31
7450.49,-88.46
7472.02,-91.04
7493.55,-110.74
7515.09,-115.27
7536.62,-105.66
7558.15,-86.04
7579.69,-74.95
7601.22,-76.74
7622.75,-94.32
7644.29,-108.47
7665.82,-104.64
7687.35,-86.74
7708.89,-74.32
7730.42,-75.18
7751.95,-90.89
7773.49,-106.59
7795.02,-113.31
7816.55,-98.31
7838.09,-84.40
7859.62,-84.48
7881.15,-98.47
7902.69,-114.64
7924.22,-110.03
7945.75,-94.25
7967.29,-78.70
7988.82,-77.84
8010.35,-90.42
8031.88,-108.08
8053.42,-107.84
8074.95,-93.15
8096.48,-75.65
8118.02,-73.93
8139.55,-85.18
8161.08,-104.64
8182.62,-112.22
8204.15,-100.11
8225.68,-80.34
8247.22,-77.68
8268.75,-87.68
8290.28,-109.09
8311.82,-119.25
8333.35,-112.45
8354.88,-89.79
8376.42,-86.28
8397.95,-95.11
8419.48,-118.71
8441.02,-117.85
8462.55,-105.19
8484.08,-78.15
8505.62,-73.77
8527.15,-81.51
8548.68,-109.17
8570.21,-119.64
8591.75,-114.95
8613.28,-80.34
8634.81,-74.95
8656.35,-81.67
8677.88,-116.67
8699.41,-127.69
8720.95,-133.87
8742.48,-97.61
8764.01,-91.28
8785.55,-96.98
8807.08,-132.30
8828.61,-125.58
8850.15,-114.41
8871.68,-84.40
8893.21,-77.05
8914.75,-81.90
8936.28,-111.13
8957.81,-117.46
8979.35,-107.45
9000.88,-82.21
9022.41,-73.85
9043.95,-77.76
9065.48,-101.98
9087.01,-114.72
9108.54,-112.45
9130.08,-90.42
9151.61,-80.96
9173.14,-83.85
9194.68,-104.80
9216.21,-118.24
9237.74,-113.86
9259.28,-93.70
9280.81,-82.99
9302.34,-85.03
9323.88,-103.39
9345.41,-114.56
9366.94,-106.36
9388.48,-87.84
9410.01,-75.80
9431.54,-77.05
9453.08,-93.31
9474.61,-108.47
9496.14,-108.00
9517.68,-90.96
9539.21,-77.60
9560.74,-77.91
9582.28,-92.45
9603.81,-108.94
9625.34,-118.39
9646.88,-116.75
9668.41,-101.83
9689.94,-101.28
9711.47,-114.25
9733.01,-120.03
9754.54,-111.13
9776.07,-95.89
9797.61,-79.09
9819.14,-77.68
9840.67,-89.32
9862.21,-108.08
9883.74,-111.36
9905.27,-97.53
9926.81,-78.62
9948.34,-76.27
9969.87,-86.67
9991.41,-107.30
10012.94,-116.60
10034.47,-107.77
10056.01,-86.20
10077.54,-82.99
10099.07,-92.21
10120.61,-115.19
10142.14,-122.61
10163.67,-110.66
10185.21,-85.34
10206.74,-81.27
10228.27,-89.40
10249.80,-115.42
10271.34,-123.00
10292.87,-111.99
10314.40,-80.73
10335.94,-75.65
10357.47,-82.76
10379.00,-114.41
10400.54,-125.35
10422.07,-131.83
10443.60,-85.03
10465.14,-79.09
10486.67,-85.18
10508.20,-140.51
10529.74,-142.93
10551.27,-135.66
10572.80,-104.64
10594.34,-97.68
10615.87,-102.76
10637.40,-128.79
10658.94,-122.85
10680.47,-111.99
10702.00,-85.49
10723.54,-77.45
10745.07,-81.67
10766.60,-107.30
10788.13,-117.85
10809.67,-109.25
10831.20,-86.12
10852.73,-77.05
10874.27,-80.34
10895.80,-102.22
10917.33,-115.74
10938.87,-118.32
10960.40,-98.23
10981.93,-87.92
11003.47,-90.34
11025.00,-109.48
11046.53,-121.52
11068.07,-113.31
11089.60,-94.25
11111.13,-82.68
11132.67,-84.17
11154.20,-101.12
11175.73,-114.72
11197.27,-108.08
11218.80,-90.42
11240.33,-77.52
11261.87,-78.15
11283.40,-93.31
11304.93,-109.25
11326.46,-111.99
11348.00,-96.04
11369.53,-81.59
11391.06,-81.35
11412.60,-94.87
11434.13,-112.06
11455.66,-120.58
11477.20,-108.55
11498.73,-92.45
11520.26,-91.28
11541.80,-103.39
11563.33,-119.96
11584.86,-113.70
11606.40,-99.09
11627.93,-80.88
11649.46,-78.85
11671.00,-89.71
11692.53,-109.56
11714.06,-114.56
11735.60,-101.51
11757.13,-80.88
11778.66,-77.99
11800.20,-87.60
11821.73,-109.64
11843.26,-119.88
11864.79,-116.91
11886.33,-93.31
11907.86,-89.56
11929.39,-98.00
11950.93,-122.85
11972.46,-126.75
11993.99,-114.41
12015.53,-85.57
12037.06,-80.88
12058.59,-88.31
12080.13,-117.53
12101.66,-127.85
12123.19,-122.85
12144.73,-83.15
12166.26,-77.52
12187.79,-83.85
12209.33,-123.86
12230.86,-132.93
12252.39,-124.02
12273.93,-88.15
12295.46,-81.59
12316.99,-86.98
12338.53,-122.93
12360.06,-133.40
12381.59,-124.49
12403.13,-96.43
12424.66,-88.78
12446.19,-93.23
12467.72,-120.27
12489.26,-121.28
12510.79,-110.81
12532.32,-86.67
12553.86,-77.91
12575.39,-81.51
12596.92,-104.56
12618.46,-116.91
12639.99,-110.81
12661.52,-89.32
12683.06,-79.48
12704.59,-82.13
12726.12,-102.14
12747.66,-116.28
12769.19,-123.24
12790.72,-106.67
12812.26,-95.65
12833.79,-97.45
12855.32,-115.03
12876.86,-121.91
12898.39,-112.30
12919.92,-94.17
12941.46,-81.74
12962.99,-82.68
12984.52,-98.39
13006.05,-113.47
13027.59,-109.64
13049.12,-92.84
13070.65,-78.93
13092.19,-79.01
13113.72,-93.00
13135.25,-109.72
13156.79,-115.97
13178.32,-101.51
13199.85,-86.04
13221.39,-85.18
13242.92,-97.76
13264.45,-115.74
13285.99,-120.50
13307.52,-106.05
13329.05,-88.54
13350.59,-86.90
13372.12,-98.08
13393.65,-116.99
13415.19,-115.19
13436.72,-101.12
13458.25,-81.43
13479.79,-78.85
13501.32,-88.85
13522.85,-110.11
13544.38,-117.77
13565.92,-106.12
13587.45,-83.46
13608.98,-80.02
13630.52,-88.85
13652.05,-112.69
13673.58,-123.47
13695.12,-129.88
13716.65,-106.52
13738.18,-102.14
13759.72,-109.88
13781.25,-135.12
13802.78,-131.99
13824.32,-120.11
13845.85,-85.65
13867.38,-80.26
13888.92,-87.06
13910.45,-121.68
13931.98,-132.07
13953.52,-127.54
13975.05,-85.03
13996.58,-78.77
14018.12,-84.48
14039.65,-127.22
14061.18,-133.63
14082.71,-123.32
14104.25,-93.39
14125.78,-86.12
14147.31,-90.89
14168.85,-120.42
14190.38,-128.40
14211.91,-118.00
14233.45,-92.68
14254.98,-84.32
14276.51,-88.23
14298.05,-112.53
14319.58,-120.58
14341.11,-110.89
14362.65,-88.54
14384.18,-79.09
14405.71,-82.06
14427.25,-103.00
14448.78,-116.36
14470.31,-113.31
14491.85,-93.15
14513.38,-82.53
14534.91,-84.63
14556.45,-103.08
14577.98,-117.69
14599.51,-125.66
14621.04,-110.19
14642.58,-98.23
14664.11,-99.40
14685.64,-115.74
14707.18,-121.44
14728.71,-112.06
14750.24,-94.72
14771.78,-81.35
14793.31,-81.74
14814.84,-96.28
14836.38,-112.45
14857.91,-112.45
14879.44,-96.59
14900.98,-81.59
14922.51,-81.12
14944.04,-94.17
14965.58,-111.67
14987.11,-120.35
15008.64,-110.19
15030.18,-93.47
15051.71,-92.06
15073.24,-103.78
15094.78,-122.46
15116.31,-120.19
15137.84,-105.73
15159.38,-86.82
15180.91,-84.56
15202.44,-94.95
15223.97,-115.35
15245.51,-117.61
15267.04,-104.41
15288.57,-82.84
15310.11,-79.63
15331.64,-88.93
15353.17,-111.75
15374.71,-121.28
15396.24,-112.84
15417.77,-87.76
15439.31,-83.70
15460.84,-91.82
15482.37,-117.92
15503.91,-128.94
15525.44,-127.77
15546.97,-96.83
15568.51,-91.82
15590.04,-98.94
15611.57,-130.04
15633.11,-139.88
15654.64,-139.73
15676.17,-86.74
15697.71,-80.81
15719.24,-86.82
15740.77,-137.54
15762.30,-131.52
15783.84,-120.42
15805.37,-87.84
15826.90,-80.88
15848.44,-85.96
15869.97,-118.32
15891.50,-130.43
15913.04,-129.33
15934.57,-103.00
15956.10,-94.95
15977.64,-99.17
15999.17,-124.80
16020.70,-126.60
16042.24,-115.89
16063.77,-92.68
16085.30,-83.54
16106.84,-86.82
16128.37,-108.86
16149.90,-120.27
16171.44,-112.06
16192.97,-91.12
16214.50,-80.88
16236.04,-83.31
16257.57,-102.53
16279.10,-116.60
16300.63,-116.60
16322.17,-97.84
16343.70,-86.35
16365.23,-87.84
16386.77,-104.87
16408.30,-119.96
16429.83,-121.68
16451.37,-104.17
16472.90,-91.28
16494.43,-91.90
16515.97,-107.06
16537.50,-120.66
16559.03,-113.16
16580.57,-96.67
16602.10,-82.21
16623.63,-81.98
16645.17,-95.58
16666.70,-112.53
16688.23,-115.27
16709.77,-100.26
16731.30,-84.17
16752.83,-83.07
16774.37,-95.18
16795.90,-113.63
16817.43,-123.24
16838.96,-120.27
16860.50,-102.37
16882.03,-100.42
16903.56,-111.20
16925.10,-128.63
16946.63,-121.13
16968.16,-107.14
16989.70,-86.51
17011.23,-83.70
17032.76,-93.31
17054.30,-115.27
17075.83,-120.74
17097.36,-108.39
17118.90,-84.56
17140.43,-80.81
17161.96,-89.32
17183.50,-114.17
17205.03,-124.64
17226.56,-120.82
17248.10,-92.29
17269.63,-87.60
17291.16,-95.11
17312.70,-124.33
17334.23,-135.43
17355.76,-133.32
17377.29,-94.09
17398.83,-88.46
17420.36,-94.95
17441.89,-133.87
17463.43,-135.12
17484.96,-124.10
17506.49,-87.68
17528.03,-81.04
17549.56,-86.51
17571.09,-122.61
17592.63,-129.18
17614.16,-118.78
17635.69,-90.57
17657.23,-82.92
17678.76,-87.45
17700.29,-115.03
17721.83,-127.77
17743.36,-132.38
17764.89,-109.41
17786.43,-100.65
17807.96,-104.25
17829.49,-126.99
17851.03,-125.43
17872.56,-114.88
17894.09,-93.23
17915.63,-83.38
17937.16,-86.12
17958.69,-106.20
17980.22,-119.02
18001.76,-112.69
18023.29,-93.07
18044.82,-82.06
18066.36,-83.85
18087.89,-101.59
18109.42,-116.28
18130.96,-119.88
18152.49,-102.45
18174.02,-90.11
18195.56,-91.04
18217.09,-106.83
18238.62,-122.30
18260.16,-118.71
18281.69,-101.75
18303.22,-87.84
18324.76,-87.92
18346.29,-101.98
18367.82,-118.08
18389.36,-114.41
18410.89,-98.62
18432.42,-83.15
18453.96,-82.37
18475.49,-94.95
18497.02,-112.84
18518.55,-118.24
18540.09,-104.33
18561.62,-86.90
18583.15,-85.26
18604.69,-96.51
18626.22,-115.97
18647.75,-126.05
18669.29,-120.03
18690.82,-100.26
18712.35,-97.68
18733.89,-107.69
18755.42,-127.61
18776.95,-122.30
18798.49,-108.86
18820.02,-86.28
18841.55,-82.84
18863.09,-91.67
18884.62,-115.42
18906.15,-124.10
18927.69,-113.39
18949.22,-86.67
18970.75,-82.29
18992.29,-90.11
19013.82,-117.53
19035.35,-128.63
19056.88,-132.22
19078.42,-99.09
19099.95,-93.78
19121.48,-100.50
19143.02,-134.73
19164.55,-143.16
19186.08,-135.43
19207.62,-92.21
19229.15,-85.89
19250.68,-91.67
19272.22,-133.87
19293.75,-130.27
19315.28,-119.10
19336.82,-88.85
19358.35,-81.59
19379.88,-86.43
19401.42,-116.05
19422.95,-127.30
19444.48,-119.96
19466.02,-94.72
19487.55,-86.35
19509.08,-90.26
19530.62,-114.72
19552.15,-127.61
19573.68,-124.72
19595.21,-102.37
19616.75,-92.92
19638.28,-95.89
19659.81,-116.83
19681.35,-124.02
19702.88,-114.25
19724.41,-94.01
19745.95,-83.31
19767.48,-85.42
19789.01,-103.94
19810.55,-117.92
19832.08,-114.56
19853.61,-96.04
19875.15,-84.09
19896.68,-85.34
19918.21,-101.75
19939.75,-117.22
19961.28,-125.27
19982.81,-111.52
20004.35,-98.23
20025.88,-98.62
20047.41,-113.24
20068.95,-126.52
20090.48,-118.00
20112.01,-101.75
20133.54,-86.82
20155.08,-86.35
20176.61,-99.40
20198.14,-116.67
20219.68,-116.67
20241.21,-101.67
20262.74,-84.95
20284.28,-83.62
20305.81,-95.26
20327.34,-114.17
20348.88,-122.07
20370.41,-109.64
20391.94,-90.81
20413.48,-88.54
20435.01,-99.01
20456.54,-119.64
20478.08,-127.93
20499.61,-115.50
20521.14,-94.01
20542.68,-90.81
20564.21,-100.11
20585.74,-122.77
20607.28,-125.04
20628.81,-112.22
20650.34,-87.14
20671.88,-83.07
20693.41,-91.20
20714.94,-117.22
20736.47,-127.54
20758.01,-120.66
20779.54,-89.71
20801.07,-84.79
20822.61,-91.90
20844.14,-123.24
20865.67,-134.41
20887.21,-141.52
20908.74,-107.30
20930.27,-101.44
20951.81,-107.53
20973.34,-143.40
20994.87,-136.13
21016.41,-124.72
21037.94,-91.82
21059.47,-84.95
21081.01,-90.03
21102.54,-122.38
21124.07,-128.24
21145.61,-117.77
21167.14,-91.04
21188.67,-83.07
21210.21,-87.29
21231.74,-113.24
21253.27,-125.82
21274.80,-123.08
21296.34,-99.95
21317.87,-90.89
21339.40,-94.17
21360.94,-116.21
21382.47,-128.71
21404.00,-121.13
21425.54,-100.19
21447.07,-89.95
21468.60,-92.29
21490.14,-111.36
21511.67,-123.24
21533.20,-114.72
21554.74,-95.58
21576.27,-84.09
21597.80,-85.57
21619.34,-102.37
21640.87,-117.61
21662.40,-117.30
21683.94,-99.72
21705.47,-86.82
21727.00,-87.45
21748.54,-102.06
21770.07,-118.71
21791.60,-127.30
21813.13,-114.41
21834.67,-99.87
21856.20,-98.54
21877.73,-104.72
21899.27,-124.25
21920.80,-120.03
21942.33,-104.56
21963.87,-88.39
21985.40,-86.04
22006.93,-90.81
22028.47,-109.02
22050.00,-121.44
