Frequency (Hz),Power (dB),44100.0000,2048,0,2.0000,0,L+R
0.00,-86.28
21.53,-91.59
43.07,-98.47
64.60,-91.75
86.13,-80.73
107.67,-48.84
129.20,-41.81
150.73,-46.89
172.27,-78.07
193.80,-79.56
215.33,-68.85
236.87,-42.59
258.40,-34.54
279.93,-38.69
301.46,-64.08
323.00,-76.20
344.53,-70.49
366.06,-47.59
387.60,-38.45
409.13,-41.66
430.66,-63.38
452.20,-76.51
473.73,-73.62
495.26,-53.14
516.80,-42.83
538.33,-45.17
559.86,-64.16
581.40,-78.23
602.93,-76.74
624.46,-57.91
646.00,-46.34
667.53,-47.83
689.06,-64.71
710.60,-79.63
732.13,-78.38
753.66,-60.88
775.20,-47.91
796.73,-48.53
818.26,-63.54
839.79,-79.48
861.33,-78.62
882.86,-62.29
904.39,-47.75
925.93,-47.52
947.46,-60.96
968.99,-78.15
990.53,-79.48
1012.06,-64.00
1033.59,-47.75
1055.13,-46.66
1076.66,-58.69
1098.19,-77.21
1119.73,-83.85
1141.26,-69.94
1162.79,-51.58
1184.33,-49.63
1205.86,-60.33
1227.39,-80.42
1248.93,-90.11
1270.46,-81.67
1291.99,-60.88
1313.53,-57.99
1335.06,-67.52
1356.59,-89.64
1378.13,-98.94
1399.66,-89.71
1421.19,-65.65
1442.72,-61.82
1464.26,-70.26
1485.79,-95.26
1507.32,-104.87
1528.86,-95.89
1550.39,-66.82
1571.92,-62.13
1593.46,-69.47
1614.99,-98.94
1636.52,-109.64
1658.06,-107.30
1679.59,-66.97
1701.12,-61.27
1722.66,-67.68
1744.19,-107.92
1765.72,-112.77
1787.26,-102.53
1808.79,-67.29
1830.32,-60.64
1851.86,-65.96
1873.39,-101.05
1894.92,-107.37
1916.46,-97.14
1937.99,-69.40
1959.52,-61.66
1981.05,-66.11
2002.59,-93.23
2024.12,-103.31
2045.65,-94.25
2067.19,-70.26
2088.72,-61.50
2110.25,-65.02
2131.79,-87.92
2153.32,-100.34
2174.85,-94.25
2196.39,-72.91
2217.92,-62.99
2239.45,-65.65
2260.99,-85.49
2282.52,-99.01
2304.05,-95.11
2325.59,-75.73
2347.12,-64.55
2368.65,-66.35
2390.19,-83.85
2411.72,-98.31
2433.25,-95.11
2454.79,-77.21
2476.32,-64.71
2497.85,-65.57
2519.38,-81.20
2540.92,-96.83
2562.45,-95.97
2583.98,-79.24
2605.52,-65.26
2627.05,-65.33
2648.58,-79.24
2670.12,-95.89
2691.65,-96.59
2713.18,-81.04
2734.72,-65.41
2756.25,-64.55
2777.78,-77.05
2799.32,-94.87
2820.85,-96.04
2842.38,-81.43
2863.92,-63.93
2885.45,-62.21
2906.98,-73.38
2928.52,-92.84
2950.05,-97.37
2971.58,-83.85
2993.12,-64.00
3014.65,-61.43
3036.18,-71.35
3057.71,-92.68
3079.25,-101.20
3100.78,-90.26
3122.31,-67.52
3143.85,-64.00
3165.38,-72.84
3186.91,-96.67
3208.45,-106.59
3229.98,-99.33
3251.51,-72.52
3273.05,-68.07
3294.58,-75.80
3316.11,-103.39
3337.65,-113.55
3359.18,-108.55
3380.71,-74.16
3402.25,-68.85
3423.78,-75.49
3445.31,-110.19
3466.85,-120.27
3488.38,-119.10
3509.91,-79.40
3531.45,-73.15
3552.98,-78.85
3574.51,-119.80
3596.04,-121.75
3617.58,-110.66
3639.11,-81.04
3660.64,-73.69
3682.18,-78.46
3703.71,-107.53
3725.24,-118.63
3746.78,-110.42
3768.31,-85.57
3789.84,-77.13
3811.38,-80.96
3832.91,-104.87
3854.44,-112.53
3875.98,-103.39
3897.51,-81.35
3919.04,-71.82
3940.58,-74.79
3962.11,-95.50
3983.64,-106.59
4005.18,-98.47
4026.71,-78.38
4048.24,-67.68
4069.78,-69.71
4091.31,-88.00
4112.84,-102.22
4134.38,-99.40
4155.91,-81.04
4177.44,-69.01
4198.97,-70.18
4220.51,-86.43
4242.04,-101.67
4263.57,-101.83
4285.11,-84.95
4306.64,-71.51
4328.17,-71.82
4349.71,-86.35
4371.24,-102.61
4392.77,-101.51
4414.31,-85.42
4435.84,-70.41
4457.37,-69.87
4478.91,-82.84
4500.44,-100.26
4521.97,-101.67
4543.51,-86.74
4565.04,-69.94
4586.57,-68.54
4608.11,-80.10
4629.64,-99.09
4651.17,-104.25
4672.71,-90.42
4694.24,-71.35
4715.77,-69.08
4737.30,-79.40
4758.84,-100.11
4780.37,-108.08
4801.90,-96.36
4823.44,-74.71
4844.97,-71.51
4866.50,-80.65
4888.04,-103.62
4909.57,-109.88
4931.10,-97.37
4952.64,-72.05
4974.17,-67.91
4995.70,-75.96
5017.24,-102.22
5038.77,-113.16
5060.30,-112.84
5081.84,-81.59
5103.37,-76.51
5124.90,-83.54
5146.44,-115.11
5167.97,-125.66
5189.50,-130.11
5211.04,-79.71
5232.57,-73.69
5254.10,-79.71
5275.63,-131.60
5297.17,-126.13
5318.70,-114.88
5340.23,-82.68
5361.77,-75.65
5383.30,-80.73
5404.83,-112.53
5426.37,-124.33
5447.90,-119.25
5469.43,-93.00
5490.97,-85.03
5512.50,-89.17
5534.03,-114.72
5555.57,-124.33
5577.10,-114.56
5598.63,-91.43
5620.17,-82.29
5641.70,-85.57
5663.23,-107.37
5684.77,-119.41
5706.30,-112.30
5727.83,-91.67
5749.37,-81.35
5770.90,-83.70
5792.43,-102.76
5813.96,-116.13
5835.50,-109.48
5857.03,-90.42
5878.56,-78.93
5900.10,-80.34
5921.63,-97.29
5943.16,-111.83
5964.70,-106.98
5986.23,-89.32
6007.76,-76.35
6029.30,-76.98
6050.83,-91.98
6072.36,-106.67
6093.90,-101.51
6115.43,-85.18
6136.96,-70.73
6158.50,-70.49
6180.03,-84.01
6201.56,-101.05
6223.10,-102.76
6244.63,-87.53
6266.16,-71.35
6287.70,-70.18
6309.23,-82.29
6330.76,-100.73
6352.29,-108.08
6373.83,-94.87
6395.36,-76.66
6416.89,-74.63
6438.43,-85.42
6459.96,-105.42
6481.49,-113.16
6503.03,-100.73
6524.56,-80.02
6546.09,-77.13
6567.63,-86.74
6589.16,-108.86
6610.69,-118.94
6632.23,-113.94
6653.76,-90.03
6675.29,-86.28
6696.83,-94.72
6718.36,-119.57
6739.89,-129.18
6761.43,-120.82
6782.96,-92.06
6804.49,-87.37
6826.03,-94.72
6847.56,-124.10
6869.09,-134.65
6890.63,-131.60
6912.16,-91.75
6933.69,-86.12
6955.22,-92.45
6976.76,-132.30
6998.29,-137.46
7019.82,-126.91
7041.36,-91.28
7062.89,-84.63
7084.42,-90.03
7105.96,-125.11
7127.49,-129.96
7149.02,-119.72
7170.56,-91.75
7192.09,-84.09
7213.62,-88.54
7235.16,-115.81
7256.69,-126.44
7278.22,-116.99
7299.76,-92.92
7321.29,-84.17
7342.82,-87.76
7364.36,-110.66
7385.89,-122.30
7407.42,-115.50
7428.96,-94.17
7450.49,-84.32
7472.02,-86.98
7493.55,-106.98
7515.09,-119.72
7536.62,-112.30
7558.15,-92.68
7579.69,-81.59
7601.22,-83.31
7622.75,-100.97
7644.29,-115.74
7665.82,-115.03
7687.35,-97.06
7708.89,-84.56
7730.42,-85.49
7751.95,-101.12
7773.49,-115.66
7795.02,-111.44
7816.55,-94.79
7838.09,-80.88
7859.62,-80.88
7881.15,-94.95
7902.69,-111.75
7924.22,-117.46
7945.75,-102.22
7967.29,-86.59
7988.82,-85.81
8010.35,-98.23
8031.88,-114.41
8053.42,-109.02
8074.95,-94.25
8096.48,-76.82
8118.02,-75.10
8139.55,-86.28
8161.08,-105.81
8182.62,-113.39
8204.15,-100.34
8225.68,-80.49
8247.22,-77.91
8268.75,-87.92
8290.28,-109.25
8311.82,-119.72
8333.35,-117.06
8354.88,-94.25
8376.42,-90.81
8397.95,-99.64
8419.48,-123.16
8441.02,-125.82
8462.55,-113.39
8484.08,-86.43
8505.62,-82.06
8527.15,-89.79
8548.68,-117.30
8570.21,-127.61
8591.75,-121.99
8613.28,-87.37
8634.81,-82.06
8656.35,-88.78
8677.88,-123.16
8699.41,-132.77
8720.95,-129.18
8742.48,-88.70
8764.01,-82.45
8785.55,-88.15
8807.08,-129.72
8828.61,-133.08
8850.15,-122.46
8871.68,-92.76
8893.21,-85.42
8914.75,-90.18
8936.28,-119.49
8957.81,-125.58
8979.35,-115.11
9000.88,-89.95
9022.41,-81.51
9043.95,-85.42
9065.48,-109.64
9087.01,-121.05
9108.54,-112.22
9130.08,-89.95
9151.61,-80.49
9173.14,-83.46
9194.68,-104.33
9216.21,-118.16
9237.74,-123.16
9259.28,-103.94
9280.81,-93.31
9302.34,-95.34
9323.88,-113.63
9345.41,-120.35
9366.94,-110.97
9388.48,-92.45
9410.01,-80.42
9431.54,-81.67
9453.08,-97.92
9474.61,-113.39
9496.14,-117.85
9517.68,-101.51
9539.21,-88.15
9560.74,-88.46
9582.28,-103.00
9603.81,-118.32
9625.34,-112.30
9646.88,-96.20
9668.41,-81.20
9689.94,-80.65
9711.47,-93.70
9733.01,-111.28
9754.54,-116.91
9776.07,-102.22
9797.61,-85.42
9819.14,-84.01
9840.67,-95.65
9862.21,-114.41
9883.74,-121.28
9905.27,-109.09
9926.81,-90.18
9948.34,-87.92
9969.87,-98.23
9991.41,-118.78
10012.94,-127.77
10034.47,-119.80
10056.01,-98.47
10077.54,-95.26
10099.07,-104.48
10120.61,-126.52
10142.14,-121.91
10163.67,-108.94
10185.21,-83.70
10206.74,-79.63
10228.27,-87.76
10249.80,-113.86
10271.34,-123.39
10292.87,-113.47
10314.40,-82.21
10335.94,-77.21
10357.47,-84.24
10379.00,-115.66
10400.54,-126.44
10422.07,-131.05
10443.60,-79.95
10465.14,-74.01
10486.67,-80.02
10508.20,-131.60
10529.74,-127.30
10551.27,-116.52
10572.80,-84.32
10594.34,-77.37
10615.87,-82.45
10637.40,-114.41
10658.94,-125.11
10680.47,-118.16
10702.00,-91.90
10723.54,-83.85
10745.07,-88.00
10766.60,-113.39
10788.13,-118.16
10809.67,-108.00
10831.20,-84.87
10852.73,-75.80
10874.27,-79.01
10895.80,-101.05
10917.33,-107.61
10938.87,-97.37
10960.40,-76.51
10981.93,-66.27
11003.47,-68.62
11025.00,-87.76
11046.53,-102.06
11068.07,-99.25
11089.60,-80.18
11111.13,-68.62
11132.67,-70.10
11154.20,-87.06
11175.73,-102.06
11197.27,-103.00
11218.80,-85.57
11240.33,-72.68
11261.87,-73.30
11283.40,-88.46
11304.93,-103.70
11326.46,-97.29
11348.00,-80.73
11369.53,-66.27
11391.06,-66.04
11412.60,-79.56
11434.13,-96.67
11455.66,-96.59
11477.20,-81.12
11498.73,-65.02
11520.26,-63.85
11541.80,-75.96
11563.33,-94.40
11584.86,-95.42
11606.40,-80.73
11627.93,-62.60
11649.46,-60.57
11671.00,-71.35
11692.53,-91.43
11714.06,-101.28
11735.60,-92.92
11757.13,-72.21
11778.66,-69.32
11800.20,-78.93
11821.73,-100.97
11843.26,-106.44
11864.79,-93.54
11886.33,-69.63
11907.86,-65.88
11929.39,-74.32
11950.93,-99.25
11972.46,-109.64
11993.99,-102.45
12015.53,-73.62
12037.06,-68.93
12058.59,-76.35
12080.13,-105.66
12101.66,-116.83
12123.19,-119.49
12144.73,-80.73
12166.26,-75.10
12187.79,-81.51
12209.33,-120.97
12230.86,-122.46
12252.39,-111.36
12273.93,-75.41
12295.46,-68.85
12316.99,-74.24
12338.53,-109.80
12360.06,-112.77
12381.59,-101.83
12403.13,-73.85
12424.66,-66.19
12446.19,-70.65
12467.72,-98.08
12489.26,-110.19
12510.79,-102.76
12532.32,-78.62
12553.86,-69.94
12575.39,-73.46
12596.92,-96.51
12618.46,-109.95
12639.99,-117.61
12661.52,-101.20
12683.06,-91.36
12704.59,-94.09
12726.12,-113.70
12747.66,-116.21
12769.19,-106.28
12790.72,-86.67
12812.26,-75.57
12833.79,-77.37
12855.32,-95.03
12876.86,-108.63
12898.39,-101.59
12919.92,-83.46
12941.46,-71.04
12962.99,-71.98
12984.52,-87.68
13006.05,-103.23
13027.59,-100.26
13049.12,-83.38
13070.65,-69.47
13092.19,-69.55
13113.72,-83.54
13135.25,-100.26
13156.79,-103.62
13178.32,-88.23
13199.85,-72.76
13221.39,-71.90
13242.92,-84.48
13264.45,-102.45
13285.99,-112.22
13307.52,-109.72
13329.05,-92.29
13350.59,-90.65
13372.12,-101.75
13393.65,-117.46
13415.19,-110.81
13436.72,-96.83
13458.25,-77.13
13479.79,-74.55
13501.32,-84.56
13522.85,-105.89
13544.38,-115.19
13565.92,-103.86
13587.45,-81.20
13608.98,-77.76
13630.52,-86.59
13652.05,-110.19
13673.58,-116.36
13695.12,-104.95
13716.65,-78.15
13738.18,-73.77
13759.72,-81.51
13781.25,-109.02
13802.78,-119.88
13824.32,-116.13
13845.85,-81.90
13867.38,-76.59
13888.92,-83.31
13910.45,-117.61
13931.98,-126.99
13953.52,-119.64
13975.05,-77.60
13996.58,-71.27
14018.12,-77.05
14039.65,-119.25
14061.18,-121.28
14082.71,-110.27
14104.25,-80.34
14125.78,-73.07
14147.31,-77.84
14168.85,-107.30
14190.38,-119.41
14211.91,-115.42
14233.45,-90.34
14254.98,-82.06
14276.51,-85.89
14298.05,-110.19
14319.58,-120.66
14341.11,-111.05
14362.65,-88.70
14384.18,-79.24
14405.71,-82.21
14427.25,-103.08
14448.78,-113.70
14470.31,-105.50
14491.85,-85.42
14513.38,-74.71
14534.91,-76.82
14556.45,-95.26
14577.98,-109.88
14599.51,-109.17
14621.04,-90.57
14642.58,-78.62
14664.11,-79.79
14685.64,-96.12
14707.18,-111.13
14728.71,-111.13
14750.24,-94.40
14771.78,-81.04
14793.31,-81.43
14814.84,-96.04
14836.38,-112.06
14857.91,-107.37
14879.44,-91.12
14900.98,-76.20
14922.51,-75.65
14944.04,-88.70
14965.58,-106.05
14987.11,-105.50
15008.64,-90.34
15030.18,-73.62
15051.71,-72.21
15073.24,-83.85
15094.78,-102.84
15116.31,-110.27
15137.84,-96.83
15159.38,-77.91
15180.91,-75.65
15202.44,-86.04
15223.97,-106.67
15245.51,-116.21
15267.04,-106.67
15288.57,-85.10
15310.11,-81.90
15331.64,-91.12
15353.17,-114.02
15374.71,-122.93
15396.24,-111.59
15417.77,-86.43
15439.31,-82.37
15460.84,-90.50
15482.37,-116.44
15503.91,-119.49
15525.44,-107.22
15546.97,-76.20
15568.51,-71.19
15590.04,-78.23
15611.57,-109.64
15633.11,-120.58
15654.64,-125.74
15676.17,-76.27
15697.71,-70.33
15719.24,-76.43
15740.77,-127.07
15762.30,-124.57
15783.84,-113.94
15805.37,-81.59
15826.90,-74.63
15848.44,-79.79
15869.97,-111.99
15891.50,-123.47
15913.04,-118.08
15934.57,-91.75
15956.10,-83.78
15977.64,-88.00
15999.17,-113.55
16020.70,-117.38
16042.24,-106.98
16063.77,-83.78
16085.30,-74.71
16106.84,-77.91
16128.37,-99.95
16149.90,-111.59
16171.44,-102.76
16192.97,-81.90
16214.50,-71.66
16236.04,-74.01
16257.57,-93.23
16279.10,-107.37
16300.63,-103.39
16322.17,-84.24
16343.70,-72.76
16365.23,-74.32
16386.77,-91.36
16408.30,-104.56
16429.83,-96.20
16451.37,-78.46
16472.90,-65.57
16494.43,-66.19
16515.97,-81.35
16537.50,-97.53
16559.03,-100.65
16580.57,-84.24
16602.10,-69.87
16623.63,-69.63
16645.17,-83.23
16666.70,-100.34
16688.23,-104.01
16709.77,-88.85
16731.30,-72.76
16752.83,-71.66
16774.37,-83.78
16795.90,-102.22
16817.43,-110.58
16838.96,-97.61
16860.50,-79.48
16882.03,-77.52
16903.56,-88.31
16925.10,-108.23
16946.63,-110.81
16968.16,-97.06
16989.70,-76.51
17011.23,-73.62
17032.76,-83.23
17054.30,-105.26
17075.83,-113.08
17097.36,-100.81
17118.90,-76.98
17140.43,-73.23
17161.96,-81.74
17183.50,-106.52
17205.03,-117.38
17226.56,-116.44
17248.10,-87.84
17269.63,-83.23
17291.16,-90.65
17312.70,-119.72
17334.23,-130.82
17355.76,-137.62
17377.29,-107.37
17398.83,-101.75
17420.36,-108.16
17441.89,-144.88
17463.43,-139.57
17484.96,-128.00
17506.49,-91.67
17528.03,-85.03
17549.56,-90.50
17571.09,-126.21
17592.63,-128.47
17614.16,-117.61
17635.69,-89.48
17657.23,-81.82
17678.76,-86.35
17700.29,-113.86
17721.83,-126.44
17743.36,-122.61
17764.89,-98.47
17786.43,-89.79
17807.96,-93.39
17829.49,-116.52
17851.03,-129.72
17872.56,-126.83
17894.09,-105.19
17915.63,-95.34
17937.16,-98.00
17958.69,-118.00
17980.22,-130.51
18001.76,-124.18
18023.29,-104.72
18044.82,-93.62
18066.36,-95.42
18087.89,-113.16
18109.42,-128.00
18130.96,-131.13
18152.49,-113.47
18174.02,-101.12
18195.56,-102.06
18217.09,-117.69
18238.62,-127.30
18260.16,-118.39
18281.69,-101.51
18303.22,-87.68
18324.76,-87.76
18346.29,-101.83
18367.82,-118.63
18389.36,-126.29
18410.89,-111.67
18432.42,-96.12
18453.96,-95.34
18475.49,-107.92
18497.02,-125.19
18518.55,-124.02
18540.09,-109.41
18561.62,-92.06
18583.15,-90.34
18604.69,-101.59
18626.22,-121.13
18647.75,-123.00
18669.29,-108.78
18690.82,-89.09
18712.35,-86.51
18733.89,-96.59
18755.42,-117.77
18776.95,-127.07
18798.49,-118.24
18820.02,-95.81
18841.55,-92.29
18863.09,-101.20
18884.62,-124.80
18906.15,-133.55
18927.69,-124.10
18949.22,-97.45
18970.75,-93.15
18992.29,-100.89
19013.82,-128.16
19035.35,-137.07
19056.88,-126.52
19078.42,-92.45
19099.95,-87.14
19121.48,-93.93
19143.02,-128.24
19164.55,-139.02
19186.08,-136.21
19207.62,-93.62
19229.15,-87.37
19250.68,-93.15
19272.22,-135.58
19293.75,-134.96
19315.28,-124.02
19336.82,-93.93
19358.35,-86.67
19379.88,-91.51
19401.42,-121.05
19422.95,-130.27
19444.48,-120.50
19466.02,-95.18
19487.55,-86.90
19509.08,-90.81
19530.62,-115.19
19552.15,-126.44
19573.68,-118.32
19595.21,-95.97
19616.75,-86.59
19638.28,-89.56
19659.81,-110.58
19681.35,-124.33
19702.88,-123.71
19724.41,-103.47
19745.95,-92.84
19767.48,-94.95
19789.01,-113.39
19810.55,-127.38
19832.08,-126.75
19853.61,-108.63
19875.15,-96.75
19896.68,-97.92
19918.21,-114.41
19939.75,-124.18
19961.28,-114.88
19982.81,-97.53
20004.35,-84.17
20025.88,-84.56
20047.41,-99.17
20068.95,-115.50
20090.48,-122.85
20112.01,-108.63
20133.54,-93.78
20155.08,-93.23
20176.61,-106.36
20198.14,-123.39
20219.68,-122.07
20241.21,-106.98
20262.74,-90.26
20284.28,-88.93
20305.81,-100.58
20327.34,-119.57
20348.88,-128.24
20370.41,-115.89
20391.94,-96.98
20413.48,-94.79
20435.01,-105.19
20456.54,-125.43
20478.08,-126.75
20499.61,-113.39
20521.14,-91.90
20542.68,-88.78
20564.21,-98.00
20585.74,-120.82
20607.28,-129.41
20628.81,-118.08
20650.34,-93.00
20671.88,-88.93
20693.41,-97.14
20714.94,-123.00
20736.47,-133.79
20758.01,-130.82
20779.54,-100.11
20801.07,-95.18
20822.61,-102.30
20844.14,-133.55
20865.67,-144.49
20887.21,-146.99
20908.74,-97.29
20930.27,-91.36
20951.81,-97.45
20973.34,-145.35
20994.87,-143.24
21016.41,-132.69
21037.94,-100.19
21059.47,-93.31
21081.01,-98.39
21102.54,-130.58
21124.07,-134.49
21145.61,-123.86
21167.14,-97.22
21188.67,-89.25
21210.21,-93.47
21231.74,-119.33
21253.27,-131.60
21274.80,-125.89
21296.34,-102.69
21317.87,-93.62
21339.40,-96.90
21360.94,-118.86
21382.47,-131.21
21404.00,-123.24
21425.54,-102.30
21447.07,-92.06
21468.60,-94.48
21490.14,-113.70
21511.67,-127.69
21533.20,-122.77
21554.74,-103.55
21576.27,-92.14
21597.80,-93.62
21619.34,-110.66
21640.87,-125.74
21662.40,-124.80
21683.94,-107.06
21705.47,-94.25
21727.00,-94.87
21748.54,-109.88
21770.07,-126.05
21791.60,-124.96
21813.13,-108.39
21834.67,-94.01
21856.20,-93.78
21877.73,-106.67
21899.27,-124.18
21920.80,-128.47
21942.33,-113.31
21963.87,-97.14
21985.40,-94.79
22006.93,-99.56
22028.47,-117.61
22050.00,-129.33
