Frequency (Hz),Power (dB),44100.0000,2048,0,2.0000,0,L+R
0.00,-48.45
21.53,-54.47
43.07,-82.99
64.60,-75.57
86.13,-64.24
107.67,-32.12
129.20,-25.09
150.73,-30.17
172.27,-61.89
193.80,-74.24
215.33,-72.76
236.87,-46.19
258.40,-38.14
279.93,-42.28
301.46,-65.96
323.00,-62.36
344.53,-51.74
366.06,-28.61
387.60,-19.46
409.13,-22.67
430.66,-44.55
452.20,-58.22
473.73,-66.74
495.26,-59.08
516.80,-48.84
538.33,-51.19
559.86,-69.94
581.40,-76.98
602.93,-67.60
624.46,-48.61
646.00,-37.05
667.53,-38.45
689.06,-55.41
710.60,-70.73
732.13,-77.76
753.66,-61.11
775.20,-48.14
796.73,-48.69
818.26,-63.77
839.79,-78.93
861.33,-75.34
882.86,-59.08
904.39,-44.55
925.93,-44.31
947.46,-57.75
968.99,-75.10
990.53,-75.10
1012.06,-59.47
1033.59,-43.22
1055.13,-42.05
1076.66,-54.08
1098.19,-72.21
1119.73,-72.91
1141.26,-58.61
1162.79,-40.33
1184.33,-38.30
1205.86,-49.08
1227.39,-69.24
1248.93,-79.56
1270.46,-78.85
1291.99,-58.22
1313.53,-55.33
1335.06,-64.86
1356.59,-86.12
1378.13,-83.07
1399.66,-69.79
1421.19,-45.72
1442.72,-41.89
1464.26,-50.33
1485.79,-75.41
1507.32,-86.12
1528.86,-82.68
1550.39,-53.69
1571.92,-49.00
1593.46,-56.35
1614.99,-86.04
1636.52,-96.83
1658.06,-94.40
1679.59,-53.69
1701.12,-47.99
1722.66,-54.39
1744.19,-95.42
1765.72,-100.11
1787.26,-89.48
1808.79,-53.85
1830.32,-47.13
1851.86,-52.52
1873.39,-87.68
1894.92,-92.29
1916.46,-81.82
1937.99,-53.92
1959.52,-46.19
1981.05,-50.64
2002.59,-77.91
2024.12,-90.50
2045.65,-91.12
2067.19,-67.68
2088.72,-58.93
2110.25,-62.44
2131.79,-85.26
2153.32,-95.42
2174.85,-86.98
2196.39,-65.57
2217.92,-55.72
2239.45,-58.30
2260.99,-78.31
2282.52,-91.75
2304.05,-85.10
2325.59,-65.49
2347.12,-54.32
2368.65,-56.03
2390.19,-73.62
2411.72,-88.46
2433.25,-90.50
2454.79,-72.91
2476.32,-60.49
2497.85,-61.35
2519.38,-77.05
2540.92,-92.68
2562.45,-88.39
2583.98,-71.43
2605.52,-57.44
2627.05,-57.44
2648.58,-71.43
2670.12,-88.00
2691.65,-91.51
2713.18,-76.74
2734.72,-61.11
2756.25,-60.25
2777.78,-72.76
2799.32,-90.81
2820.85,-94.17
2842.38,-79.56
2863.92,-61.97
2885.45,-60.25
2906.98,-71.43
2928.52,-90.96
2950.05,-100.34
2971.58,-90.42
2993.12,-70.57
3014.65,-67.99
3036.18,-77.91
3057.71,-99.17
3079.25,-106.20
3100.78,-94.56
3122.31,-71.74
3143.85,-68.22
3165.38,-77.05
3186.91,-101.05
3208.45,-110.19
3229.98,-99.25
3251.51,-72.13
3273.05,-67.68
3294.58,-75.41
3316.11,-103.23
3337.65,-114.41
3359.18,-115.66
3380.71,-80.81
3402.25,-75.41
3423.78,-82.13
3445.31,-117.22
3466.85,-125.43
3488.38,-115.74
3509.91,-74.01
3531.45,-67.68
3552.98,-73.38
3574.51,-114.33
3596.04,-112.14
3617.58,-100.89
3639.11,-71.04
3660.64,-63.69
3682.18,-68.46
3703.71,-97.76
3725.24,-109.95
3746.78,-105.42
3768.31,-80.34
3789.84,-71.90
3811.38,-75.73
3832.91,-99.95
3854.44,-106.98
3875.98,-96.98
3897.51,-74.71
3919.04,-65.18
3940.58,-68.07
3962.11,-89.01
3983.64,-102.45
4005.18,-96.67
4026.71,-76.43
4048.24,-65.65
4069.78,-67.76
4091.31,-86.04
4112.84,-100.65
4134.38,-107.69
4155.91,-92.29
4177.44,-80.34
4198.97,-81.51
4220.51,-97.84
4242.04,-113.39
4263.57,-109.41
4285.11,-91.90
4306.64,-78.46
4328.17,-78.77
4349.71,-93.07
4371.24,-101.83
4392.77,-93.15
4414.31,-77.05
4435.84,-61.97
4457.37,-61.43
4478.91,-74.40
4500.44,-92.06
4521.97,-100.97
4543.51,-93.39
4565.04,-76.82
4586.57,-75.41
4608.11,-86.98
4629.64,-105.73
4651.17,-107.69
4672.71,-93.70
4694.24,-74.71
4715.77,-72.37
4737.30,-82.76
4758.84,-103.62
4780.37,-110.97
4801.90,-97.92
4823.44,-76.12
4844.97,-72.91
4866.50,-82.13
4888.04,-105.03
4909.57,-111.28
4931.10,-99.33
4952.64,-73.93
4974.17,-69.79
4995.70,-77.84
5017.24,-104.25
5038.77,-113.24
5060.30,-101.98
5081.84,-70.26
5103.37,-65.26
5124.90,-72.29
5146.44,-104.33
5167.97,-115.66
5189.50,-122.69
5211.04,-68.15
5232.57,-62.13
5254.10,-68.15
5275.63,-129.10
5297.17,-125.89
5318.70,-115.35
5340.23,-83.07
5361.77,-76.12
5383.30,-81.20
5404.83,-112.77
5426.37,-117.69
5447.90,-107.30
5469.43,-80.96
5490.97,-72.91
5512.50,-77.05
5534.03,-102.84
5555.57,-111.20
5577.10,-100.73
5598.63,-77.45
5620.17,-68.30
5641.70,-71.58
5663.23,-93.39
5684.77,-106.52
5706.30,-104.72
5727.83,-84.32
5749.37,-74.01
5770.90,-76.35
5792.43,-95.58
5813.96,-108.08
5835.50,-99.17
5857.03,-80.02
5878.56,-68.38
5900.10,-69.87
5921.63,-86.82
5943.16,-101.83
5964.70,-104.01
5986.23,-87.06
6007.76,-74.09
6029.30,-74.71
6050.83,-89.79
6072.36,-105.97
6093.90,-112.92
6115.43,-98.70
6136.96,-84.24
6158.50,-84.01
6180.03,-97.53
6201.56,-114.49
6223.10,-110.42
6244.63,-94.87
6266.16,-78.62
6287.70,-77.52
6309.23,-89.56
6330.76,-108.08
6352.29,-107.37
6373.83,-92.61
6395.36,-74.40
6416.89,-72.37
6438.43,-83.15
6459.96,-103.23
6481.49,-113.00
6503.03,-105.97
6524.56,-85.34
6546.09,-82.45
6567.63,-91.98
6589.16,-114.02
6610.69,-116.99
6632.23,-104.01
6653.76,-79.95
6675.29,-76.20
6696.83,-84.63
6718.36,-109.64
6739.89,-120.35
6761.43,-120.97
6782.96,-93.00
6804.49,-88.23
6826.03,-95.65
6847.56,-125.19
6869.09,-132.46
6890.63,-121.28
6912.16,-80.65
6933.69,-75.02
6955.22,-81.35
6976.76,-122.07
6998.29,-127.22
7019.82,-116.28
7041.36,-80.34
7062.89,-73.69
7084.42,-79.09
7105.96,-114.80
7127.49,-126.75
7149.02,-123.39
7170.56,-95.42
7192.09,-87.76
7213.62,-92.21
7235.16,-119.33
7256.69,-126.60
7278.22,-117.06
7299.76,-93.00
7321.29,-84.24
7342.82,-87.76
7364.36,-110.58
7385.89,-115.74
7407.42,-105.81
7428.96,-84.24
7450.49,-74.32
7472.02,-76.98
7493.55,-96.98
7515.09,-111.05
7536.62,-113.08
7558.15,-93.86
7579.69,-82.76
7601.22,-84.56
7622.75,-102.22
7644.29,-113.86
7665.82,-104.87
7687.35,-86.67
7708.89,-74.24
7730.42,-75.10
7751.95,-90.81
7773.49,-106.36
7795.02,-109.95
7816.55,-94.09
7838.09,-80.18
7859.62,-80.26
7881.15,-94.25
7902.69,-110.66
7924.22,-108.55
7945.75,-92.84
7967.29,-77.29
7988.82,-76.43
8010.35,-88.93
8031.88,-106.98
8053.42,-115.97
8074.95,-108.00
8096.48,-90.73
8118.02,-89.01
8139.55,-100.19
8161.08,-116.99
8182.62,-109.95
8204.15,-95.73
8225.68,-75.96
8247.22,-73.30
8268.75,-83.31
8290.28,-104.72
8311.82,-115.03
8333.35,-117.61
8354.88,-96.43
8376.42,-92.92
8397.95,-101.75
8419.48,-123.71
8441.02,-117.77
8462.55,-104.95
8484.08,-77.91
8505.62,-73.46
8527.15,-81.27
8548.68,-109.02
8570.21,-120.03
8591.75,-119.49
8613.28,-85.03
8634.81,-79.63
8656.35,-86.35
8677.88,-121.60
8699.41,-133.01
8720.95,-129.57
8742.48,-87.06
8764.01,-80.73
8785.55,-86.51
8807.08,-128.71
8828.61,-132.07
8850.15,-120.89
8871.68,-90.89
8893.21,-83.62
8914.75,-88.39
8936.28,-117.46
8957.81,-121.44
8979.35,-111.05
9000.88,-85.81
9022.41,-77.45
9043.95,-81.35
9065.48,-105.66
9087.01,-118.55
9108.54,-111.99
9130.08,-89.48
9151.61,-79.95
9173.14,-82.92
9194.68,-103.78
9216.21,-115.66
9237.74,-108.55
9259.28,-88.46
9280.81,-77.76
9302.34,-79.79
9323.88,-98.23
9345.41,-112.69
9366.94,-114.64
9388.48,-96.59
9410.01,-84.56
9431.54,-85.81
9453.08,-102.06
9474.61,-116.36
9496.14,-111.75
9517.68,-94.64
9539.21,-81.27
9560.74,-81.59
9582.28,-96.20
9603.81,-112.61
9625.34,-113.86
9646.88,-97.76
9668.41,-82.76
9689.94,-82.21
9711.47,-95.26
9733.01,-112.77
9754.54,-116.91
9776.07,-102.22
9797.61,-85.42
9819.14,-83.93
9840.67,-95.65
9862.21,-114.56
9883.74,-115.89
9905.27,-101.51
9926.81,-82.53
9948.34,-80.18
9969.87,-90.57
9991.41,-111.28
10012.94,-121.21
10034.47,-112.69
10056.01,-90.96
10077.54,-87.84
10099.07,-96.98
10120.61,-119.57
10142.14,-121.52
10163.67,-108.94
10185.21,-83.62
10206.74,-79.48
10228.27,-87.60
10249.80,-113.86
10271.34,-123.79
10292.87,-115.58
10314.40,-84.32
10335.94,-79.24
10357.47,-86.35
10379.00,-118.16
10400.54,-129.65
10422.07,-137.23
10443.60,-88.46
10465.14,-82.53
10486.67,-88.54
10508.20,-141.91
10529.74,-135.58
10551.27,-124.33
10572.80,-91.75
10594.34,-84.79
10615.87,-89.87
10637.40,-122.07
10658.94,-131.21
10680.47,-120.82
10702.00,-94.17
10723.54,-86.20
10745.07,-90.34
10766.60,-115.89
10788.13,-122.46
10809.67,-112.45
10831.20,-89.25
10852.73,-80.10
10874.27,-83.38
10895.80,-105.26
10917.33,-117.14
10938.87,-110.42
10960.40,-89.64
10981.93,-79.40
11003.47,-81.74
11025.00,-100.97
11046.53,-115.42
11068.07,-116.83
11089.60,-97.84
11111.13,-86.28
11132.67,-87.76
11154.20,-104.80
11175.73,-119.72
11197.27,-118.32
11218.80,-100.73
11240.33,-87.84
11261.87,-88.46
11283.40,-103.62
11304.93,-119.64
11326.46,-125.27
11348.00,-110.19
11369.53,-95.73
11391.06,-95.50
11412.60,-108.94
11434.13,-122.46
11455.66,-115.11
11477.20,-99.56
11498.73,-83.38
11520.26,-82.29
11541.80,-94.40
11563.33,-112.69
11584.86,-118.00
11606.40,-104.72
11627.93,-86.59
11649.46,-84.63
11671.00,-95.42
11692.53,-115.50
11714.06,-124.88
11735.60,-118.24
11757.13,-97.76
11778.66,-94.87
11800.20,-104.48
11821.73,-126.60
11843.26,-126.60
11864.79,-113.31
11886.33,-89.40
11907.86,-85.57
11929.39,-94.09
11950.93,-118.94
11972.46,-128.00
11993.99,-118.63
12015.53,-89.87
12037.06,-85.18
12058.59,-92.61
12080.13,-122.07
12101.66,-133.24
12123.19,-140.27
12144.73,-110.03
12166.26,-104.41
12187.79,-110.81
12209.33,-146.45
12230.86,-141.21
12252.39,-130.04
12273.93,-93.78
12295.46,-87.14
12316.99,-92.61
12338.53,-128.55
12360.06,-137.77
12381.59,-128.94
12403.13,-100.97
12424.66,-93.31
12446.19,-97.76
12467.72,-125.04
12489.26,-126.75
12510.79,-115.97
12532.32,-91.82
12553.86,-83.07
12575.39,-86.67
12596.92,-109.80
12618.46,-121.21
12639.99,-112.38
12661.52,-90.73
12683.06,-80.81
12704.59,-83.54
12726.12,-103.55
12747.66,-117.14
12769.19,-116.05
12790.72,-96.83
12812.26,-85.73
12833.79,-87.53
12855.32,-105.19
12876.86,-120.11
12898.39,-127.69
12919.92,-112.84
12941.46,-100.42
12962.99,-101.36
12984.52,-117.22
13006.05,-125.82
13027.59,-116.36
13049.12,-99.40
13070.65,-85.49
13092.19,-85.57
13113.72,-99.64
13135.25,-116.44
13156.79,-120.66
13178.32,-105.42
13199.85,-89.87
13221.39,-89.09
13242.92,-101.67
13264.45,-119.41
13285.99,-117.77
13307.52,-102.76
13329.05,-85.26
13350.59,-83.62
13372.12,-94.79
13393.65,-114.33
13415.19,-121.28
13436.72,-108.08
13458.25,-88.23
13479.79,-85.65
13501.32,-95.65
13522.85,-116.99
13544.38,-124.64
13565.92,-113.00
13587.45,-90.34
13608.98,-86.90
13630.52,-95.73
13652.05,-119.64
13673.58,-127.77
13695.12,-116.36
13716.65,-89.40
13738.18,-85.03
13759.72,-92.76
13781.25,-120.42
13802.78,-131.44
13824.32,-131.60
13845.85,-97.68
13867.38,-92.29
13888.92,-99.09
13910.45,-133.79
13931.98,-142.70
13953.52,-134.57
13975.05,-91.59
13996.58,-85.34
14018.12,-91.04
14039.65,-133.08
14061.18,-131.83
14082.71,-120.66
14104.25,-90.50
14125.78,-83.23
14147.31,-88.00
14168.85,-117.53
14190.38,-128.08
14211.91,-120.50
14233.45,-95.34
14254.98,-87.06
14276.51,-90.89
14298.05,-115.27
14319.58,-128.16
14341.11,-129.02
14362.65,-107.37
14384.18,-97.92
14405.71,-100.89
14427.25,-121.91
14448.78,-133.71
14470.31,-125.04
14491.85,-104.80
14513.38,-94.09
14534.91,-96.20
14556.45,-114.64
14577.98,-129.33
14599.51,-129.65
14621.04,-111.13
14642.58,-99.17
14664.11,-100.42
14685.64,-116.83
14707.18,-130.66
14728.71,-122.46
14750.24,-104.95
14771.78,-91.59
14793.31,-91.90
14814.84,-106.52
14836.38,-121.91
14857.91,-118.47
14879.44,-102.45
14900.98,-87.53
14922.51,-86.98
14944.04,-100.03
14965.58,-117.38
14987.11,-121.05
15008.64,-106.83
15030.18,-90.11
15051.71,-88.70
15073.24,-100.42
15094.78,-119.41
15116.31,-128.79
15137.84,-117.77
15159.38,-98.78
15180.91,-96.51
15202.44,-106.91
15223.97,-127.22
15245.51,-125.35
15267.04,-111.59
15288.57,-89.95
15310.11,-86.82
15331.64,-96.04
15353.17,-118.94
15374.71,-128.40
15396.24,-119.02
15417.77,-93.78
15439.31,-89.71
15460.84,-97.84
15482.37,-124.02
15503.91,-134.49
15525.44,-128.55
15546.97,-97.37
15568.51,-92.37
15590.04,-99.48
15611.57,-131.05
15633.11,-142.15
15654.64,-147.93
15676.17,-98.23
15697.71,-92.29
15719.24,-98.39
15740.77,-151.37
15762.30,-149.42
15783.84,-138.79
15805.37,-106.36
15826.90,-99.40
15848.44,-104.48
15869.97,-136.60
15891.50,-135.74
15913.04,-124.64
15934.57,-97.92
15956.10,-89.95
15977.64,-94.09
15999.17,-119.96
16020.70,-128.79
16042.24,-119.10
16063.77,-95.81
16085.30,-86.74
16106.84,-90.03
16128.37,-112.06
16149.90,-125.04
16171.44,-118.32
16192.97,-97.29
16214.50,-87.06
16236.04,-89.48
16257.57,-108.63
16279.10,-122.53
16300.63,-120.97
16322.17,-102.14
16343.70,-90.65
16365.23,-92.14
16386.77,-109.17
16408.30,-124.41
16429.83,-130.58
16451.37,-113.70
16472.90,-100.81
16494.43,-101.44
16515.97,-116.44
16537.50,-126.52
16559.03,-118.16
16580.57,-101.67
16602.10,-87.29
16623.63,-87.06
16645.17,-100.58
16666.70,-117.85
16688.23,-126.60
16709.77,-113.94
16731.30,-97.76
16752.83,-96.67
16774.37,-108.78
16795.90,-127.22
16817.43,-132.85
16838.96,-118.71
16860.50,-100.50
16882.03,-98.54
16903.56,-109.33
16925.10,-129.02
16946.63,-129.80
16968.16,-116.13
16989.70,-95.58
17011.23,-92.68
17032.76,-102.30
17054.30,-124.41
17075.83,-133.79
17097.36,-123.55
17118.90,-99.64
17140.43,-95.89
17161.96,-104.41
17183.50,-129.02
17205.03,-132.69
17226.56,-120.50
17248.10,-91.75
17269.63,-87.14
17291.16,-94.56
17312.70,-123.86
17334.23,-134.65
17355.76,-130.97
17377.29,-91.59
17398.83,-85.96
17420.36,-92.37
17441.89,-132.15
17463.43,-143.63
17484.96,-145.74
17506.49,-110.19
17528.03,-103.55
17549.56,-109.02
17571.09,-144.88
17592.63,-151.21
17614.16,-141.91
17635.69,-114.10
17657.23,-106.44
17678.76,-110.97
17700.29,-137.93
17721.83,-134.73
17743.36,-123.94
17764.89,-99.64
17786.43,-90.96
17807.96,-94.56
17829.49,-117.77
17851.03,-131.05
17872.56,-126.60
17894.09,-104.80
17915.63,-94.95
17937.16,-97.61
17958.69,-117.61
17980.22,-129.26
18001.76,-121.91
18023.29,-102.30
18044.82,-91.28
18066.36,-93.07
18087.89,-110.81
18109.42,-124.64
18130.96,-119.10
18152.49,-100.97
18174.02,-88.54
18195.56,-89.48
18217.09,-105.26
18238.62,-120.74
18260.16,-123.47
18281.69,-107.53
18303.22,-93.70
18324.76,-93.78
18346.29,-107.84
18367.82,-124.72
18389.36,-127.30
18410.89,-111.67
18432.42,-96.12
18453.96,-95.34
18475.49,-107.92
18497.02,-125.89
18518.55,-129.18
18540.09,-114.41
18561.62,-96.98
18583.15,-95.34
18604.69,-106.59
18626.22,-126.05
18647.75,-131.05
18669.29,-117.30
18690.82,-97.53
18712.35,-94.95
18733.89,-105.03
18755.42,-126.36
18776.95,-135.27
18798.49,-123.71
18820.02,-100.97
18841.55,-97.53
18863.09,-106.44
18884.62,-130.11
18906.15,-134.18
18927.69,-121.75
18949.22,-94.95
18970.75,-90.57
18992.29,-98.39
19013.82,-125.89
19035.35,-136.68
19056.88,-135.43
19078.42,-101.75
19099.95,-96.43
19121.48,-103.23
19143.02,-137.77
19164.55,-148.56
19186.08,-145.20
19207.62,-101.90
19229.15,-95.65
19250.68,-101.44
19272.22,-144.88
19293.75,-144.26
19315.28,-133.01
19336.82,-102.76
19358.35,-95.50
19379.88,-100.34
19401.42,-130.11
19422.95,-141.68
19444.48,-133.55
19466.02,-108.08
19487.55,-99.72
19509.08,-103.62
19530.62,-127.85
19552.15,-134.33
19573.68,-124.57
19595.21,-102.22
19616.75,-92.76
19638.28,-95.73
19659.81,-116.83
19681.35,-129.88
19702.88,-122.61
19724.41,-102.30
19745.95,-91.59
19767.48,-93.70
19789.01,-112.22
19810.55,-126.44
19832.08,-123.24
19853.61,-104.64
19875.15,-92.68
19896.68,-93.93
19918.21,-110.34
19939.75,-125.66
19961.28,-131.99
19982.81,-117.06
20004.35,-103.78
20025.88,-104.17
20047.41,-118.78
20068.95,-133.01
20090.48,-125.89
20112.01,-109.64
20133.54,-94.79
20155.08,-94.25
20176.61,-107.37
20198.14,-124.96
20219.68,-133.79
20241.21,-121.52
20262.74,-104.72
20284.28,-103.39
20305.81,-115.03
20327.34,-132.69
20348.88,-128.94
20370.41,-114.72
20391.94,-95.89
20413.48,-93.62
20435.01,-104.01
20456.54,-124.64
20478.08,-130.58
20499.61,-117.61
20521.14,-96.04
20542.68,-92.84
20564.21,-102.14
20585.74,-124.80
20607.28,-130.82
20628.81,-119.17
20650.34,-94.01
20671.88,-90.03
20693.41,-98.15
20714.94,-124.25
20736.47,-135.27
20758.01,-137.15
20779.54,-106.59
20801.07,-101.67
20822.61,-108.78
20844.14,-139.49
20865.67,-150.59
20887.21,-154.81
20908.74,-104.33
20930.27,-98.39
20951.81,-104.48
20973.34,-153.32
20994.87,-148.01
21016.41,-136.91
21037.94,-104.09
21059.47,-97.22
21081.01,-102.30
21102.54,-134.65
21124.07,-138.40
21145.61,-127.69
21167.14,-100.97
21188.67,-93.00
21210.21,-97.22
21231.74,-123.08
21253.27,-131.52
21274.80,-121.83
21296.34,-98.54
21317.87,-89.48
21339.40,-92.76
21360.94,-114.80
21382.47,-128.16
21404.00,-129.26
21425.54,-109.09
21447.07,-98.94
21468.60,-101.36
21490.14,-120.58
21511.67,-133.55
21533.20,-128.47
21554.74,-109.48
21576.27,-98.00
21597.80,-99.48
21619.34,-115.35
21640.87,-131.13
21662.40,-127.77
21683.94,-110.11
21705.47,-97.22
21727.00,-97.68
21748.54,-110.42
21770.07,-128.32
21791.60,-129.80
21813.13,-113.86
21834.67,-99.56
21856.20,-99.33
21877.73,-112.61
21899.27,-129.72
21920.80,-129.02
21942.33,-113.55
21963.87,-97.45
21985.40,-96.04
22006.93,-104.72
22028.47,-122.77
22050.00,-132.77
