Frequency (Hz),Power (dB),44100.0000,2048,0,2.0000,0,L+R
0.00,-91.51
21.53,-88.78
43.07,-83.70
64.60,-76.43
86.13,-65.10
107.67,-32.90
129.20,-25.95
150.73,-30.95
172.27,-62.29
193.80,-62.99
215.33,-52.05
236.87,-25.71
258.40,-17.67
279.93,-21.73
301.46,-47.28
323.00,-60.33
344.53,-66.74
366.06,-46.58
387.60,-37.44
409.13,-40.64
430.66,-62.36
452.20,-73.93
473.73,-66.82
495.26,-46.11
516.80,-35.79
538.33,-38.14
559.86,-57.21
581.40,-71.43
602.93,-73.69
624.46,-55.41
646.00,-43.84
667.53,-45.25
689.06,-62.13
710.60,-73.93
732.13,-65.72
753.66,-48.14
775.20,-35.17
796.73,-35.72
818.26,-50.80
839.79,-66.97
861.33,-75.26
882.86,-63.93
904.39,-49.55
925.93,-49.24
947.46,-62.68
968.99,-79.71
990.53,-83.54
1012.06,-68.93
1033.59,-52.75
1055.13,-51.58
1076.66,-63.61
1098.19,-82.06
1119.73,-90.11
1141.26,-78.85
1162.79,-60.64
1184.33,-58.61
1205.86,-69.32
1227.39,-88.54
1248.93,-85.73
1270.46,-71.98
1291.99,-51.19
1313.53,-48.22
1335.06,-57.75
1356.59,-80.02
1378.13,-90.42
1399.66,-91.75
1421.19,-68.62
1442.72,-64.79
1464.26,-73.23
1485.79,-98.00
1507.32,-105.11
1528.86,-94.72
1550.39,-65.65
1571.92,-60.96
1593.46,-68.30
1614.99,-97.92
1636.52,-108.86
1658.06,-114.49
1679.59,-78.70
1701.12,-72.99
1722.66,-79.32
1744.19,-118.71
1765.72,-114.64
1787.26,-103.62
1808.79,-68.07
1830.32,-61.43
1851.86,-66.82
1873.39,-102.06
1894.92,-113.47
1916.46,-110.11
1937.99,-82.76
1959.52,-75.02
1981.05,-79.48
2002.59,-106.52
2024.12,-118.63
2045.65,-120.19
2067.19,-98.00
2088.72,-89.25
2110.25,-92.76
2131.79,-114.80
2153.32,-115.89
2174.85,-106.05
2196.39,-84.63
2217.92,-74.71
2239.45,-77.37
2260.99,-97.22
2282.52,-107.69
2304.05,-99.09
2325.59,-79.56
2347.12,-68.46
2368.65,-70.18
2390.19,-87.76
2411.72,-102.61
2433.25,-109.72
2454.79,-94.79
2476.32,-82.37
2497.85,-83.23
2519.38,-98.86
2540.92,-114.17
2562.45,-115.74
2583.98,-99.64
2605.52,-85.73
2627.05,-85.73
2648.58,-99.64
2670.12,-116.13
2691.65,-119.72
2713.18,-105.11
2734.72,-89.56
2756.25,-88.70
2777.78,-101.20
2799.32,-118.24
2820.85,-115.89
2842.38,-101.28
2863.92,-83.78
2885.45,-82.06
2906.98,-93.23
2928.52,-112.53
2950.05,-118.00
2971.58,-105.19
2993.12,-85.42
3014.65,-82.76
3036.18,-92.68
3057.71,-113.94
3079.25,-121.91
3100.78,-111.20
3122.31,-88.54
3143.85,-85.03
3165.38,-93.78
3186.91,-117.53
3208.45,-126.68
3229.98,-119.10
3251.51,-92.37
3273.05,-88.00
3294.58,-95.65
3316.11,-123.08
3337.65,-132.85
3359.18,-130.11
3380.71,-96.28
3402.25,-90.89
3423.78,-97.61
3445.31,-131.91
3466.85,-140.12
3488.38,-132.54
3509.91,-91.82
3531.45,-85.49
3552.98,-91.20
3574.51,-131.76
3596.04,-134.26
3617.58,-124.10
3639.11,-94.56
3660.64,-87.29
3682.18,-91.98
3703.71,-121.05
3725.24,-129.65
3746.78,-120.58
3768.31,-95.58
3789.84,-87.14
3811.38,-91.04
3832.91,-115.03
3854.44,-125.27
3875.98,-116.75
3897.51,-94.64
3919.04,-85.10
3940.58,-88.07
3962.11,-108.86
3983.64,-122.30
4005.18,-121.13
4026.71,-101.44
4048.24,-90.73
4069.78,-92.76
4091.31,-111.05
4112.84,-124.80
4134.38,-121.21
4155.91,-102.92
4177.44,-90.89
4198.97,-92.06
4220.51,-108.31
4242.04,-123.47
4263.57,-125.43
4285.11,-108.94
4306.64,-95.58
4328.17,-95.89
4349.71,-110.34
4371.24,-126.13
4392.77,-125.04
4414.31,-109.25
4435.84,-94.25
4457.37,-93.70
4478.91,-106.67
4500.44,-124.10
4521.97,-131.13
4543.51,-118.55
4565.04,-101.83
4586.57,-100.42
4608.11,-111.99
4629.64,-130.11
4651.17,-129.26
4672.71,-115.35
4694.24,-96.36
4715.77,-94.01
4737.30,-104.41
4758.84,-124.80
4780.37,-130.43
4801.90,-118.08
4823.44,-96.43
4844.97,-93.23
4866.50,-102.45
4888.04,-125.27
4909.57,-134.65
4931.10,-127.77
4952.64,-102.69
4974.17,-98.62
4995.70,-106.67
5017.24,-132.46
5038.77,-140.90
5060.30,-132.62
5081.84,-101.59
5103.37,-96.59
5124.90,-103.62
5146.44,-135.04
5167.97,-145.04
5189.50,-150.04
5211.04,-102.61
5232.57,-96.59
5254.10,-102.61
5275.63,-150.28
5297.17,-145.04
5318.70,-134.88
5340.23,-103.00
5361.77,-96.04
5383.30,-101.12
5404.83,-132.62
5426.37,-140.82
5447.90,-131.91
5469.43,-105.81
5490.97,-97.76
5512.50,-101.90
5534.03,-127.38
5555.57,-138.24
5577.10,-131.05
5598.63,-108.23
5620.17,-99.09
5641.70,-102.30
5663.23,-124.10
5684.77,-136.68
5706.30,-132.46
5727.83,-112.06
5749.37,-101.75
5770.90,-104.09
5792.43,-123.16
5813.96,-135.51
5835.50,-128.71
5857.03,-109.88
5878.56,-98.31
5900.10,-99.79
5921.63,-116.67
5943.16,-131.44
5964.70,-131.37
5986.23,-114.17
6007.76,-101.28
6029.30,-101.90
6050.83,-116.99
6072.36,-132.46
6093.90,-131.13
6115.43,-115.03
6136.96,-100.58
6158.50,-100.34
6180.03,-113.78
6201.56,-130.51
6223.10,-130.43
6244.63,-115.35
6266.16,-99.17
6287.70,-98.00
6309.23,-110.11
6330.76,-128.32
6352.29,-132.30
6373.83,-118.63
6395.36,-100.50
6416.89,-98.47
6438.43,-109.25
6459.96,-129.18
6481.49,-136.21
6503.03,-124.41
6524.56,-103.78
6546.09,-100.89
6567.63,-110.42
6589.16,-132.30
6610.69,-138.79
6632.23,-127.22
6653.76,-103.39
6675.29,-99.56
6696.83,-108.00
6718.36,-132.77
6739.89,-141.76
6761.43,-133.16
6782.96,-104.48
6804.49,-99.79
6826.03,-107.14
6847.56,-136.37
6869.09,-146.45
6890.63,-145.43
6912.16,-106.36
6933.69,-100.73
6955.22,-107.06
6976.76,-146.68
6998.29,-151.60
7019.82,-141.84
7041.36,-106.52
7062.89,-99.87
7084.42,-105.26
7105.96,-140.27
7127.49,-144.26
7149.02,-134.18
7170.56,-106.36
7192.09,-98.70
7213.62,-103.16
7235.16,-130.27
7256.69,-140.90
7278.22,-133.32
7299.76,-109.41
7321.29,-100.65
7342.82,-104.25
7364.36,-127.15
7385.89,-138.55
7407.42,-131.21
7428.96,-109.88
7450.49,-100.03
7472.02,-102.69
7493.55,-122.61
7515.09,-136.05
7536.62,-133.55
7558.15,-114.33
7579.69,-103.23
7601.22,-105.03
7622.75,-122.61
7644.29,-136.44
7665.82,-132.22
7687.35,-114.33
7708.89,-101.90
7730.42,-102.84
7751.95,-118.47
7773.49,-133.94
7795.02,-134.88
7816.55,-118.63
7838.09,-104.72
7859.62,-104.72
7881.15,-118.71
7902.69,-134.96
7924.22,-134.10
7945.75,-118.63
7967.29,-103.08
7988.82,-102.22
8010.35,-114.80
8031.88,-132.62
8053.42,-138.09
8074.95,-124.57
8096.48,-107.14
8118.02,-105.42
8139.55,-116.60
8161.08,-135.66
8182.62,-136.68
8204.15,-123.00
8225.68,-103.23
8247.22,-100.65
8268.75,-110.58
8290.28,-131.83
8311.82,-139.80
8333.35,-128.71
8354.88,-106.05
8376.42,-102.61
8397.95,-111.44
8419.48,-135.12
8441.02,-143.95
8462.55,-134.80
8484.08,-108.08
8505.62,-103.70
8527.15,-111.44
8548.68,-138.87
8570.21,-148.56
8591.75,-142.70
8613.28,-108.39
8634.81,-103.08
8656.35,-109.80
8677.88,-144.42
8699.41,-154.57
8720.95,-152.31
8742.48,-111.44
8764.01,-105.11
8785.55,-110.81
8807.08,-151.14
8828.61,-150.04
8850.15,-139.65
8871.68,-109.95
8893.21,-102.69
8914.75,-107.45
8936.28,-136.60
8957.81,-143.71
8979.35,-134.10
9000.88,-109.02
9022.41,-100.65
9043.95,-104.48
9065.48,-128.71
9087.01,-140.98
9108.54,-136.44
9130.08,-114.41
9151.61,-104.95
9173.14,-107.92
9194.68,-128.71
9216.21,-140.90
9237.74,-134.33
9259.28,-114.25
9280.81,-103.55
9302.34,-105.66
9323.88,-124.02
9345.41,-137.85
9366.94,-134.80
9388.48,-116.52
9410.01,-104.48
9431.54,-105.73
9453.08,-121.99
9474.61,-137.07
9496.14,-137.30
9517.68,-120.58
9539.21,-107.22
9560.74,-107.53
9582.28,-122.07
9603.81,-137.77
9625.34,-135.35
9646.88,-119.49
9668.41,-104.48
9689.94,-103.94
9711.47,-116.99
9733.01,-134.41
9754.54,-139.49
9776.07,-125.50
9797.61,-108.78
9819.14,-107.37
9840.67,-118.94
9862.21,-137.54
9883.74,-139.02
9905.27,-125.04
9926.81,-106.12
9948.34,-103.86
9969.87,-114.17
9991.41,-134.80
10012.94,-143.32
10034.47,-133.01
10056.01,-111.44
10077.54,-108.23
10099.07,-117.46
10120.61,-140.20
10142.14,-147.78
10163.67,-136.84
10185.21,-111.75
10206.74,-107.69
10228.27,-115.74
10249.80,-141.76
10271.34,-150.90
10292.87,-142.77
10314.40,-111.75
10335.94,-106.75
10357.47,-113.78
10379.00,-145.20
10400.54,-155.59
10422.07,-160.59
10443.60,-114.25
10465.14,-108.23
10486.67,-114.33
10508.20,-160.90
10529.74,-155.98
10551.27,-145.74
10572.80,-113.63
10594.34,-106.67
10615.87,-111.75
10637.40,-143.48
10658.94,-149.89
10680.47,-140.12
10702.00,-113.70
10723.54,-105.73
10745.07,-109.88
10766.60,-135.51
10788.13,-146.37
10809.67,-138.79
10831.20,-115.81
10852.73,-106.67
10874.27,-109.95
10895.80,-131.76
10917.33,-144.02
10938.87,-138.16
10960.40,-117.53
10981.93,-107.22
11003.47,-109.64
11025.00,-128.71
11046.53,-140.82
11068.07,-136.37
11089.60,-117.53
11111.13,-105.97
11132.67,-107.45
11154.20,-124.41
11175.73,-138.63
11197.27,-134.96
11218.80,-117.46
11240.33,-104.56
11261.87,-105.19
11283.40,-120.35
11304.93,-135.98
11326.46,-135.58
11348.00,-119.49
11369.53,-105.03
11391.06,-104.80
11412.60,-118.32
11434.13,-135.19
11455.66,-137.93
11477.20,-123.08
11498.73,-106.91
11520.26,-105.81
11541.80,-117.92
11563.33,-135.98
11584.86,-141.52
11606.40,-129.02
11627.93,-110.89
11649.46,-108.86
11671.00,-119.64
11692.53,-139.26
11714.06,-139.57
11735.60,-125.97
11757.13,-105.34
11778.66,-102.45
11800.20,-112.06
11821.73,-134.10
11843.26,-143.79
11864.79,-136.68
11886.33,-112.92
11907.86,-109.17
11929.39,-117.61
11950.93,-142.38
11972.46,-151.37
11993.99,-142.77
12015.53,-114.17
12037.06,-109.48
12058.59,-116.91
12080.13,-146.06
12101.66,-155.51
12123.19,-152.54
12144.73,-113.31
12166.26,-107.69
12187.79,-114.10
12209.33,-153.64
12230.86,-160.43
12252.39,-150.67
12273.93,-114.88
12295.46,-108.23
12316.99,-113.70
12338.53,-149.10
12360.06,-153.01
12381.59,-142.77
12403.13,-114.88
12424.66,-107.22
12446.19,-111.67
12467.72,-139.02
12489.26,-150.04
12510.79,-143.01
12532.32,-119.17
12553.86,-110.42
12575.39,-114.02
12596.92,-136.99
12618.46,-148.87
12639.99,-143.09
12661.52,-121.83
12683.06,-111.99
12704.59,-114.64
12726.12,-134.57
12747.66,-145.82
12769.19,-137.93
12790.72,-118.47
12812.26,-107.37
12833.79,-109.17
12855.32,-126.75
12876.86,-140.98
12898.39,-138.16
12919.92,-120.35
12941.46,-107.92
12962.99,-108.86
12984.52,-124.57
13006.05,-139.73
13027.59,-138.16
13049.12,-121.60
13070.65,-107.69
13092.19,-107.77
13113.72,-121.75
13135.25,-138.16
13156.79,-138.48
13178.32,-123.00
13199.85,-107.53
13221.39,-106.67
13242.92,-119.25
13264.45,-137.07
13285.99,-141.68
13307.52,-127.77
13329.05,-110.34
13350.59,-108.63
13372.12,-119.88
13393.65,-139.10
13415.19,-143.24
13436.72,-129.88
13458.25,-110.19
13479.79,-107.61
13501.32,-117.53
13522.85,-138.87
13544.38,-147.38
13565.92,-137.07
13587.45,-114.49
13608.98,-111.05
13630.52,-119.88
13652.05,-143.48
13673.58,-148.95
13695.12,-137.15
13716.65,-110.34
13738.18,-105.97
13759.72,-113.70
13781.25,-141.29
13802.78,-151.37
13824.32,-144.88
13845.85,-110.58
13867.38,-105.26
13888.92,-111.99
13910.45,-146.68
13931.98,-157.70
13953.52,-159.18
13975.05,-117.53
13996.58,-111.28
14018.12,-116.99
14039.65,-158.17
14061.18,-156.06
14082.71,-145.43
14104.25,-115.50
14125.78,-108.23
14147.31,-113.00
14168.85,-142.46
14190.38,-152.46
14211.91,-144.26
14233.45,-119.10
14254.98,-110.81
14276.51,-114.64
14298.05,-138.87
14319.58,-148.56
14341.11,-139.73
14362.65,-117.53
14384.18,-108.00
14405.71,-111.05
14427.25,-131.91
14448.78,-145.27
14470.31,-143.32
14491.85,-123.55
14513.38,-112.92
14534.91,-114.95
14556.45,-133.32
14577.98,-146.29
14599.51,-140.04
14621.04,-121.60
14642.58,-109.64
14664.11,-110.81
14685.64,-127.22
14707.18,-142.38
14728.71,-145.04
14750.24,-128.63
14771.78,-115.27
14793.31,-115.66
14814.84,-130.19
14836.38,-145.82
14857.91,-142.85
14879.44,-127.22
14900.98,-112.30
14922.51,-111.75
14944.04,-124.80
14965.58,-142.15
14987.11,-145.98
15008.64,-131.68
15030.18,-114.95
15051.71,-113.55
15073.24,-125.19
15094.78,-143.56
15116.31,-142.46
15137.84,-128.32
15159.38,-109.41
15180.91,-107.14
15202.44,-117.53
15223.97,-138.16
15245.51,-146.29
15267.04,-135.04
15288.57,-113.55
15310.11,-110.34
15331.64,-119.57
15353.17,-142.31
15374.71,-148.40
15396.24,-136.44
15417.77,-111.28
15439.31,-107.22
15460.84,-115.35
15482.37,-141.37
15503.91,-151.76
15525.44,-147.07
15546.97,-116.21
15568.51,-111.28
15590.04,-118.32
15611.57,-149.81
15633.11,-160.51
15654.64,-165.75
15676.17,-119.64
15697.71,-113.70
15719.24,-119.80
15740.77,-164.65
15762.30,-158.72
15783.84,-147.78
15805.37,-115.19
15826.90,-108.23
15848.44,-113.39
15869.97,-145.35
15891.50,-150.98
15913.04,-140.74
15934.57,-114.17
15956.10,-106.12
15977.64,-110.34
15999.17,-136.13
16020.70,-148.32
16042.24,-143.87
16063.77,-120.89
16085.30,-111.83
16106.84,-115.11
16128.37,-137.07
16149.90,-148.17
16171.44,-140.20
16192.97,-119.41
16214.50,-109.17
16236.04,-111.59
16257.57,-130.82
16279.10,-144.57
16300.63,-143.63
16322.17,-124.88
16343.70,-113.39
16365.23,-114.88
16386.77,-131.91
16408.30,-145.82
16429.83,-141.13
16451.37,-123.55
16472.90,-110.66
16494.43,-111.36
16515.97,-126.52
16537.50,-142.46
16559.03,-150.67
16580.57,-139.96
16602.10,-125.74
16623.63,-125.50
16645.17,-138.95
16666.70,-150.51
16688.23,-142.23
16709.77,-126.75
16731.30,-110.66
16752.83,-109.56
16774.37,-121.68
16795.90,-140.12
16817.43,-148.48
16838.96,-137.93
16860.50,-119.88
16882.03,-117.92
16903.56,-128.71
16925.10,-148.40
16946.63,-152.23
16968.16,-139.26
16989.70,-118.71
17011.23,-115.81
17032.76,-125.43
17054.30,-147.23
17075.83,-151.60
17097.36,-139.26
17118.90,-115.42
17140.43,-111.67
17161.96,-120.19
17183.50,-144.88
17205.03,-151.60
17226.56,-140.27
17248.10,-111.59
17269.63,-106.91
17291.16,-114.41
17312.70,-143.63
17334.23,-154.65
17355.76,-154.96
17377.29,-116.13
17398.83,-110.50
17420.36,-116.91
17441.89,-156.37
17463.43,-165.44
17484.96,-155.59
17506.49,-119.41
17528.03,-112.77
17549.56,-118.24
17571.09,-153.71
17592.63,-153.32
17614.16,-142.46
17635.69,-114.25
17657.23,-106.67
17678.76,-111.13
17700.29,-138.71
17721.83,-150.82
17743.36,-146.76
17764.89,-122.85
17786.43,-114.10
17807.96,-117.69
17829.49,-140.82
17851.03,-152.23
17872.56,-144.88
17894.09,-123.39
17915.63,-113.63
17937.16,-116.28
17958.69,-136.29
17980.22,-148.48
18001.76,-141.37
18023.29,-121.75
18044.82,-110.74
18066.36,-112.53
18087.89,-130.27
18109.42,-144.26
18130.96,-140.20
18152.49,-122.22
18174.02,-109.80
18195.56,-110.74
18217.09,-126.52
18238.62,-142.23
18260.16,-150.67
18281.69,-141.60
18303.22,-127.93
18324.76,-128.00
18346.29,-141.91
18367.82,-150.90
18389.36,-142.38
18410.89,-126.60
18432.42,-111.05
18453.96,-110.27
18475.49,-122.85
18497.02,-140.51
18518.55,-141.13
18540.09,-126.52
18561.62,-109.17
18583.15,-107.45
18604.69,-118.71
18626.22,-138.09
18647.75,-146.13
18669.29,-134.65
18690.82,-115.03
18712.35,-112.45
18733.89,-122.53
18755.42,-143.63
18776.95,-149.34
18798.49,-136.99
18820.02,-114.41
18841.55,-110.97
18863.09,-119.88
18884.62,-143.56
18906.15,-152.23
18927.69,-142.07
18949.22,-115.42
18970.75,-111.05
18992.29,-118.78
19013.82,-146.21
19035.35,-157.07
19056.88,-163.01
19078.42,-135.51
19099.95,-130.19
19121.48,-136.91
19143.02,-169.11
19164.55,-164.58
19186.08,-153.56
19207.62,-110.03
19229.15,-103.78
19250.68,-109.56
19272.22,-152.93
19293.75,-158.87
19315.28,-148.63
19336.82,-118.47
19358.35,-111.20
19379.88,-115.97
19401.42,-145.67
19422.95,-157.23
19444.48,-152.00
19466.02,-126.91
19487.55,-118.55
19509.08,-122.46
19530.62,-146.68
19552.15,-152.78
19573.68,-143.01
19595.21,-120.66
19616.75,-111.28
19638.28,-114.25
19659.81,-135.27
19681.35,-148.01
19702.88,-142.54
19724.41,-122.46
19745.95,-111.83
19767.48,-113.86
19789.01,-132.38
19810.55,-146.92
19832.08,-155.28
19853.61,-148.40
19875.15,-136.76
19896.68,-138.01
19918.21,-153.56
19939.75,-155.43
19961.28,-146.21
19982.81,-129.02
20004.35,-115.66
20025.88,-116.05
20047.41,-130.66
20068.95,-146.76
20090.48,-148.48
20112.01,-132.93
20133.54,-118.08
20155.08,-117.53
20176.61,-130.66
20198.14,-147.46
20219.68,-145.43
20241.21,-130.43
20262.74,-113.70
20284.28,-112.38
20305.81,-124.02
20327.34,-142.70
20348.88,-145.12
20370.41,-131.21
20391.94,-112.30
20413.48,-110.11
20435.01,-120.50
20456.54,-140.98
20478.08,-146.99
20499.61,-134.41
20521.14,-112.84
20542.68,-109.72
20564.21,-119.02
20585.74,-141.76
20607.28,-150.82
20628.81,-141.45
20650.34,-116.36
20671.88,-112.30
20693.41,-120.50
20714.94,-146.29
20736.47,-156.14
20758.01,-148.71
20779.54,-117.92
20801.07,-112.92
20822.61,-120.03
20844.14,-151.21
20865.67,-162.15
20887.21,-168.01
20908.74,-122.93
20930.27,-116.99
20951.81,-123.00
20973.34,-143.16
20994.87,-157.39
21016.41,-155.90
21037.94,-123.16
21059.47,-116.21
21081.01,-121.36
21102.54,-149.65
21124.07,-157.15
21145.61,-147.23
21167.14,-120.58
21188.67,-112.61
21210.21,-116.83
21231.74,-142.62
21253.27,-149.89
21274.80,-139.96
21296.34,-116.67
21317.87,-107.61
21339.40,-110.89
21360.94,-132.93
21382.47,-145.98
21404.00,-142.46
21425.54,-121.68
21447.07,-111.44
21468.60,-113.86
21490.14,-132.93
21511.67,-144.49
21533.20,-137.54
21554.74,-118.39
21576.27,-106.98
21597.80,-108.47
21619.34,-125.50
21640.87,-140.59
21662.40,-144.96
21683.94,-128.16
21705.47,-115.35
21727.00,-115.81
21748.54,-128.24
21770.07,-145.98
21791.60,-143.16
21813.13,-126.83
21834.67,-112.45
21856.20,-112.06
21877.73,-123.08
21899.27,-141.45
21920.80,-144.49
21942.33,-129.41
21963.87,-113.31
21985.40,-111.67
22006.93,-118.71
22028.47,-136.68
22050.00,-148.01
