Frequency (Hz),Power (dB),44100.0000,2048,0,2.0000,0,L+R
0.00,-54.16
21.53,-60.18
43.07,-90.81
64.60,-83.38
86.13,-72.05
107.67,-39.94
129.20,-32.90
150.73,-37.98
172.27,-69.71
193.80,-78.70
215.33,-68.85
236.87,-42.44
258.40,-34.39
279.93,-38.53
301.46,-64.16
323.00,-75.26
344.53,-66.11
366.06,-42.98
387.60,-33.84
409.13,-37.05
430.66,-58.93
452.20,-69.55
473.73,-60.02
495.26,-39.16
516.80,-28.84
538.33,-31.18
559.86,-50.17
581.40,-63.93
602.93,-61.82
624.46,-43.14
646.00,-31.58
667.53,-32.98
689.06,-49.86
710.60,-65.18
732.13,-74.32
753.66,-65.65
775.20,-52.60
796.73,-53.22
818.26,-68.22
839.79,-83.85
861.33,-83.54
882.86,-67.21
904.39,-52.67
925.93,-52.44
947.46,-65.88
968.99,-82.21
990.53,-75.96
1012.06,-60.41
1033.59,-44.16
1055.13,-42.98
1076.66,-55.02
1098.19,-73.54
1119.73,-82.60
1141.26,-74.95
1162.79,-56.97
1184.33,-54.86
1205.86,-65.65
1227.39,-85.73
1248.93,-81.35
1270.46,-67.29
1291.99,-46.50
1313.53,-43.53
1335.06,-53.06
1356.59,-75.26
1378.13,-84.87
1399.66,-78.15
1421.19,-54.32
1442.72,-50.49
1464.26,-58.93
1485.79,-84.09
1507.32,-94.72
1528.86,-88.39
1550.39,-59.24
1571.92,-54.55
1593.46,-61.89
1614.99,-91.43
1636.52,-101.51
1658.06,-94.56
1679.59,-53.77
1701.12,-48.06
1722.66,-54.39
1744.19,-95.65
1765.72,-106.20
1787.26,-96.98
1808.79,-61.27
1830.32,-54.63
1851.86,-60.02
1873.39,-94.87
1894.92,-97.45
1916.46,-86.74
1937.99,-58.85
1959.52,-51.11
1981.05,-55.57
2002.59,-82.68
2024.12,-91.36
2045.65,-82.21
2067.19,-58.22
2088.72,-49.39
2110.25,-52.91
2131.79,-75.80
2153.32,-87.45
2174.85,-79.95
2196.39,-58.46
2217.92,-48.61
2239.45,-51.19
2260.99,-71.12
2282.52,-85.18
2304.05,-86.20
2325.59,-67.05
2347.12,-55.88
2368.65,-57.60
2390.19,-75.26
2411.72,-89.95
2433.25,-86.04
2454.79,-67.83
2476.32,-55.33
2497.85,-56.27
2519.38,-71.82
2540.92,-87.29
2562.45,-88.78
2583.98,-72.68
2605.52,-58.77
2627.05,-58.77
2648.58,-72.76
2670.12,-88.85
2691.65,-87.45
2713.18,-71.98
2734.72,-56.42
2756.25,-55.57
2777.78,-68.07
2799.32,-85.96
2820.85,-89.79
2842.38,-75.65
2863.92,-58.14
2885.45,-56.42
2906.98,-67.60
2928.52,-87.21
2950.05,-96.75
2971.58,-86.43
2993.12,-66.51
3014.65,-63.93
3036.18,-73.85
3057.71,-95.34
3079.25,-97.76
3100.78,-84.24
3122.31,-61.35
3143.85,-57.83
3165.38,-66.66
3186.91,-90.42
3208.45,-95.65
3229.98,-83.78
3251.51,-56.66
3273.05,-52.28
3294.58,-60.02
3316.11,-87.76
3337.65,-98.47
3359.18,-94.79
3380.71,-59.94
3402.25,-54.63
3423.78,-61.35
3445.31,-96.75
3466.85,-108.31
3488.38,-115.97
3509.91,-83.31
3531.45,-76.98
3552.98,-82.68
3574.51,-120.19
3596.04,-114.88
3617.58,-103.70
3639.11,-73.93
3660.64,-66.58
3682.18,-71.35
3703.71,-100.65
3725.24,-103.70
3746.78,-92.84
3768.31,-67.68
3789.84,-59.24
3811.38,-63.07
3832.91,-87.14
3854.44,-96.04
3875.98,-86.82
3897.51,-64.55
3919.04,-55.02
3940.58,-57.99
3962.11,-78.77
3983.64,-91.82
4005.18,-86.67
4026.71,-66.58
4048.24,-55.88
4069.78,-57.91
4091.31,-76.27
4112.84,-90.81
4134.38,-94.56
4155.91,-76.74
4177.44,-64.79
4198.97,-65.96
4220.51,-82.21
4242.04,-97.76
4263.57,-98.23
4285.11,-80.96
4306.64,-67.52
4328.17,-67.83
4349.71,-82.37
4371.24,-97.84
4392.77,-93.93
4414.31,-77.91
4435.84,-62.83
4457.37,-62.29
4478.91,-75.26
4500.44,-92.92
4521.97,-102.22
4543.51,-96.98
4565.04,-80.42
4586.57,-79.01
4608.11,-90.57
4629.64,-105.34
4651.17,-97.68
4672.71,-83.31
4694.24,-64.24
4715.77,-61.97
4737.30,-72.29
4758.84,-93.00
4780.37,-98.31
4801.90,-85.26
4823.44,-63.54
4844.97,-60.33
4866.50,-69.55
4888.04,-92.53
4909.57,-100.97
4931.10,-89.64
4952.64,-64.24
4974.17,-60.10
4995.70,-68.22
5017.24,-94.48
5038.77,-104.25
5060.30,-95.34
5081.84,-63.85
5103.37,-58.77
5124.90,-65.88
5146.44,-97.76
5167.97,-109.09
5189.50,-116.05
5211.04,-67.76
5232.57,-61.74
5254.10,-67.76
5275.63,-125.11
5297.17,-118.94
5318.70,-107.61
5340.23,-75.26
5361.77,-68.30
5383.30,-73.38
5404.83,-104.72
5426.37,-106.52
5447.90,-95.89
5469.43,-69.47
5490.97,-61.43
5512.50,-65.57
5534.03,-91.20
5555.57,-102.37
5577.10,-94.48
5598.63,-71.43
5620.17,-62.29
5641.70,-65.57
5663.23,-87.45
5684.77,-100.89
5706.30,-97.14
5727.83,-76.35
5749.37,-66.04
5770.90,-68.38
5792.43,-87.53
5813.96,-101.12
5835.50,-94.64
5857.03,-75.49
5878.56,-63.93
5900.10,-65.41
5921.63,-82.29
5943.16,-97.22
5964.70,-95.58
5986.23,-77.99
6007.76,-65.10
6029.30,-65.65
6050.83,-80.81
6072.36,-96.90
6093.90,-100.03
6115.43,-83.85
6136.96,-69.40
6158.50,-69.08
6180.03,-82.60
6201.56,-99.87
6223.10,-106.05
6244.63,-91.12
6266.16,-74.95
6287.70,-73.77
6309.23,-85.89
6330.76,-104.41
6352.29,-110.97
6373.83,-97.14
6395.36,-78.93
6416.89,-76.90
6438.43,-87.68
6459.96,-106.75
6481.49,-101.12
6503.03,-87.14
6524.56,-66.43
6546.09,-63.54
6567.63,-73.07
6589.16,-95.18
6610.69,-100.65
6632.23,-88.23
6653.76,-64.24
6675.29,-60.41
6696.83,-68.93
6718.36,-93.93
6739.89,-103.86
6761.43,-96.04
6782.96,-67.13
6804.49,-62.44
6826.03,-69.79
6847.56,-99.40
6869.09,-110.58
6890.63,-114.56
6912.16,-75.18
6933.69,-69.47
6955.22,-75.88
6976.76,-116.44
6998.29,-125.97
7019.82,-117.69
7041.36,-81.98
7062.89,-75.34
7084.42,-80.73
7105.96,-116.52
7127.49,-121.21
7149.02,-110.42
7170.56,-82.37
7192.09,-74.71
7213.62,-79.16
7235.16,-106.67
7256.69,-113.24
7278.22,-102.69
7299.76,-78.54
7321.29,-69.79
7342.82,-73.30
7364.36,-96.28
7385.89,-107.61
7407.42,-98.70
7428.96,-77.13
7450.49,-67.29
7472.02,-69.94
7493.55,-89.95
7515.09,-103.55
7536.62,-98.39
7558.15,-78.70
7579.69,-67.60
7601.22,-69.40
7622.75,-87.06
7644.29,-101.44
7665.82,-96.75
7687.35,-78.62
7708.89,-66.11
7730.42,-67.05
7751.95,-82.76
7773.49,-98.23
7795.02,-97.22
7816.55,-80.49
7838.09,-66.58
7859.62,-66.58
7881.15,-80.57
7902.69,-97.37
7924.22,-103.55
7945.75,-89.09
7967.29,-73.54
7988.82,-72.68
8010.35,-85.18
8031.88,-103.16
8053.42,-110.11
8074.95,-96.90
8096.48,-79.48
8118.02,-77.76
8139.55,-88.93
8161.08,-107.84
8182.62,-105.11
8204.15,-91.04
8225.68,-71.27
8247.22,-68.62
8268.75,-78.62
8290.28,-99.95
8311.82,-105.58
8333.35,-92.84
8354.88,-70.02
8376.42,-66.51
8397.95,-75.34
8419.48,-99.33
8441.02,-108.47
8462.55,-97.68
8484.08,-70.73
8505.62,-66.27
8527.15,-74.01
8548.68,-101.75
8570.21,-112.53
8591.75,-108.08
8613.28,-73.30
8634.81,-67.91
8656.35,-74.63
8677.88,-109.72
8699.41,-120.89
8720.95,-120.42
8742.48,-78.77
8764.01,-72.44
8785.55,-78.15
8807.08,-120.50
8828.61,-123.08
8850.15,-111.99
8871.68,-81.98
8893.21,-74.71
8914.75,-79.48
8936.28,-108.94
8957.81,-119.49
8979.35,-110.19
9000.88,-84.95
9022.41,-76.59
9043.95,-80.42
9065.48,-104.80
9087.01,-115.89
9108.54,-106.59
9130.08,-84.17
9151.61,-74.71
9173.14,-77.68
9194.68,-98.54
9216.21,-108.94
9237.74,-99.64
9259.28,-79.40
9280.81,-68.69
9302.34,-70.73
9323.88,-89.17
9345.41,-103.08
9366.94,-97.84
9388.48,-79.32
9410.01,-67.29
9431.54,-68.54
9453.08,-84.87
9474.61,-100.11
9496.14,-99.95
9517.68,-82.84
9539.21,-69.40
9560.74,-69.71
9582.28,-84.32
9603.81,-100.73
9625.34,-104.87
9646.88,-89.17
9668.41,-74.16
9689.94,-73.62
9711.47,-86.59
9733.01,-104.25
9754.54,-112.84
9776.07,-100.34
9797.61,-83.46
9819.14,-82.06
9840.67,-93.70
9862.21,-112.61
9883.74,-111.91
9905.27,-97.45
9926.81,-78.46
9948.34,-76.20
9969.87,-86.51
9991.41,-107.22
10012.94,-109.33
10034.47,-95.73
10056.01,-74.09
10077.54,-70.88
10099.07,-80.10
10120.61,-103.08
10142.14,-111.36
10163.67,-99.72
10185.21,-74.32
10206.74,-70.26
10228.27,-78.38
10249.80,-104.56
10271.34,-114.88
10292.87,-106.91
10314.40,-75.57
10335.94,-70.57
10357.47,-77.60
10379.00,-109.33
10400.54,-120.58
10422.07,-127.15
10443.60,-76.20
10465.14,-70.26
10486.67,-76.27
10508.20,-129.02
10529.74,-123.08
10551.27,-111.91
10572.80,-79.40
10594.34,-72.44
10615.87,-77.52
10637.40,-109.72
10658.94,-121.60
10680.47,-115.11
10702.00,-88.54
10723.54,-80.57
10745.07,-84.71
10766.60,-110.58
10788.13,-121.21
10809.67,-111.59
10831.20,-88.39
10852.73,-79.24
10874.27,-82.53
10895.80,-104.48
10917.33,-113.86
10938.87,-104.25
10960.40,-83.31
10981.93,-73.07
11003.47,-75.41
11025.00,-94.64
11046.53,-108.00
11068.07,-101.36
11089.60,-82.21
11111.13,-70.73
11132.67,-72.21
11154.20,-89.17
11175.73,-104.09
11197.27,-101.75
11218.80,-84.09
11240.33,-71.19
11261.87,-71.82
11283.40,-86.90
11304.93,-103.00
11326.46,-104.95
11348.00,-88.70
11369.53,-74.24
11391.06,-74.01
11412.60,-87.53
11434.13,-104.80
11455.66,-110.34
11477.20,-95.42
11498.73,-79.24
11520.26,-78.15
11541.80,-90.26
11563.33,-108.78
11584.86,-113.55
11606.40,-99.09
11627.93,-80.88
11649.46,-78.85
11671.00,-89.71
11692.53,-109.80
11714.06,-114.56
11735.60,-100.89
11757.13,-80.18
11778.66,-77.29
11800.20,-86.90
11821.73,-109.09
11843.26,-115.27
11864.79,-102.45
11886.33,-78.54
11907.86,-74.71
11929.39,-83.23
11950.93,-108.16
11972.46,-116.99
11993.99,-105.97
12015.53,-77.05
12037.06,-72.37
12058.59,-79.79
12080.13,-109.25
12101.66,-120.19
12123.19,-117.30
12144.73,-77.37
12166.26,-71.74
12187.79,-78.15
12209.33,-118.16
12230.86,-125.89
12252.39,-115.89
12273.93,-79.79
12295.46,-73.15
12316.99,-78.54
12338.53,-114.56
12360.06,-123.16
12381.59,-113.00
12403.13,-84.87
12424.66,-77.21
12446.19,-81.67
12467.72,-109.17
12489.26,-121.75
12510.79,-116.44
12532.32,-92.21
12553.86,-83.54
12575.39,-87.06
12596.92,-110.27
12618.46,-119.17
12639.99,-109.17
12661.52,-87.53
12683.06,-77.68
12704.59,-80.34
12726.12,-100.42
12747.66,-113.08
12769.19,-105.19
12790.72,-85.49
12812.26,-74.40
12833.79,-76.20
12855.32,-93.86
12876.86,-108.39
12898.39,-104.80
12919.92,-86.67
12941.46,-74.24
12962.99,-75.18
12984.52,-90.89
13006.05,-106.59
13027.59,-106.12
13049.12,-89.32
13070.65,-75.41
13092.19,-75.41
13113.72,-89.48
13135.25,-106.28
13156.79,-108.55
13178.32,-92.92
13199.85,-77.37
13221.39,-76.51
13242.92,-89.09
13264.45,-107.14
13285.99,-112.77
13307.52,-98.39
13329.05,-80.88
13350.59,-79.16
13372.12,-90.42
13393.65,-109.95
13415.19,-117.22
13436.72,-103.86
13458.25,-84.09
13479.79,-81.51
13501.32,-91.51
13522.85,-112.92
13544.38,-118.39
13565.92,-105.26
13587.45,-82.53
13608.98,-79.09
13630.52,-87.92
13652.05,-111.83
13673.58,-119.17
13695.12,-107.06
13716.65,-80.10
13738.18,-75.73
13759.72,-83.54
13781.25,-111.13
13802.78,-121.52
13824.32,-114.02
13845.85,-79.40
13867.38,-74.09
13888.92,-80.81
13910.45,-115.66
13931.98,-126.60
13953.52,-123.47
13975.05,-80.88
13996.58,-74.55
14018.12,-80.34
14039.65,-123.08
14061.18,-125.43
14082.71,-114.49
14104.25,-84.32
14125.78,-77.05
14147.31,-81.82
14168.85,-111.52
14190.38,-123.00
14211.91,-114.49
14233.45,-89.17
14254.98,-80.81
14276.51,-84.63
14298.05,-109.09
14319.58,-121.28
14341.11,-113.24
14362.65,-90.81
14384.18,-81.35
14405.71,-84.32
14427.25,-105.34
14448.78,-118.00
14470.31,-110.19
14491.85,-89.87
14513.38,-79.24
14534.91,-81.35
14556.45,-99.79
14577.98,-113.78
14599.51,-108.31
14621.04,-89.64
14642.58,-77.68
14664.11,-78.85
14685.64,-95.26
14707.18,-110.42
14728.71,-107.77
14750.24,-90.50
14771.78,-77.13
14793.31,-77.45
14814.84,-92.06
14836.38,-108.47
14857.91,-109.02
14879.44,-92.92
14900.98,-77.99
14922.51,-77.45
14944.04,-90.50
14965.58,-108.08
14987.11,-111.99
15008.64,-97.06
15030.18,-80.26
15051.71,-78.93
15073.24,-90.57
15094.78,-109.56
15116.31,-116.52
15137.84,-103.08
15159.38,-84.09
15180.91,-81.82
15202.44,-92.21
15223.97,-113.00
15245.51,-120.66
15267.04,-107.84
15288.57,-86.20
15310.11,-82.99
15331.64,-92.29
15353.17,-115.19
15374.71,-121.36
15396.24,-108.78
15417.77,-83.46
15439.31,-79.40
15460.84,-87.53
15482.37,-113.70
15503.91,-123.39
15525.44,-113.47
15546.97,-82.21
15568.51,-77.21
15590.04,-84.32
15611.57,-115.89
15633.11,-127.15
15654.64,-133.32
15676.17,-82.92
15697.71,-76.98
15719.24,-83.07
15740.77,-134.41
15762.30,-128.79
15783.84,-117.53
15805.37,-84.87
15826.90,-77.91
15848.44,-83.07
15869.97,-115.42
15891.50,-124.64
15913.04,-114.72
15934.57,-88.07
15956.10,-80.02
15977.64,-84.24
15999.17,-110.11
16020.70,-122.30
16042.24,-114.80
16063.77,-91.51
16085.30,-82.45
16106.84,-85.73
16128.37,-107.77
16149.90,-120.74
16171.44,-113.86
16192.97,-92.84
16214.50,-82.60
16236.04,-85.03
16257.57,-104.25
16279.10,-118.00
16300.63,-111.91
16322.17,-92.68
16343.70,-81.20
16365.23,-82.68
16386.77,-99.72
16408.30,-114.56
16429.83,-110.58
16451.37,-92.76
16472.90,-79.95
16494.43,-80.57
16515.97,-95.73
16537.50,-111.67
16559.03,-110.66
16580.57,-94.17
16602.10,-79.71
16623.63,-79.48
16645.17,-93.07
16666.70,-110.19
16688.23,-112.38
16709.77,-97.06
16731.30,-80.96
16752.83,-79.87
16774.37,-91.98
16795.90,-110.42
16817.43,-115.81
16838.96,-101.67
16860.50,-83.54
16882.03,-81.59
16903.56,-92.37
16925.10,-112.45
16946.63,-120.11
16968.16,-107.22
16989.70,-86.59
17011.23,-83.78
17032.76,-93.39
17054.30,-115.50
17075.83,-123.32
17097.36,-110.97
17118.90,-87.06
17140.43,-83.31
17161.96,-91.75
17183.50,-116.67
17205.03,-125.58
17226.56,-114.49
17248.10,-85.73
17269.63,-81.04
17291.16,-88.46
17312.70,-117.77
17334.23,-128.71
17355.76,-124.72
17377.29,-85.18
17398.83,-79.56
17420.36,-85.96
17441.89,-125.50
17463.43,-132.69
17484.96,-122.46
17506.49,-86.04
17528.03,-79.48
17549.56,-84.95
17571.09,-121.21
17592.63,-127.30
17614.16,-116.60
17635.69,-88.39
17657.23,-80.73
17678.76,-85.26
17700.29,-112.84
17721.83,-124.25
17743.36,-115.66
17764.89,-91.43
17786.43,-82.68
17807.96,-86.28
17829.49,-109.48
17851.03,-122.30
17872.56,-115.89
17894.09,-94.25
17915.63,-84.40
17937.16,-87.06
17958.69,-107.22
17980.22,-120.82
18001.76,-114.88
18023.29,-95.11
18044.82,-84.09
18066.36,-85.89
18087.89,-103.62
18109.42,-118.08
18130.96,-113.31
18152.49,-95.11
18174.02,-82.76
18195.56,-83.62
18217.09,-99.40
18238.62,-114.95
18260.16,-113.00
18281.69,-96.12
18303.22,-82.29
18324.76,-82.37
18346.29,-96.43
18367.82,-113.08
18389.36,-113.86
18410.89,-98.15
18432.42,-82.60
18453.96,-81.82
18475.49,-94.40
18497.02,-112.38
18518.55,-116.05
18540.09,-101.44
18561.62,-84.01
18583.15,-82.29
18604.69,-93.54
18626.22,-113.08
18647.75,-119.72
18669.29,-106.28
18690.82,-86.51
18712.35,-84.01
18733.89,-94.01
18755.42,-115.35
18776.95,-123.55
18798.49,-111.36
18820.02,-88.70
18841.55,-85.18
18863.09,-94.09
18884.62,-117.92
18906.15,-126.83
18927.69,-115.58
18949.22,-88.78
18970.75,-84.40
18992.29,-92.21
19013.82,-119.64
19035.35,-130.04
19056.88,-122.46
19078.42,-88.07
19099.95,-82.76
19121.48,-89.56
19143.02,-124.10
19164.55,-134.96
19186.08,-131.44
19207.62,-88.07
19229.15,-81.82
19250.68,-87.60
19272.22,-130.90
19293.75,-130.66
19315.28,-119.57
19336.82,-89.32
19358.35,-82.06
19379.88,-86.82
19401.42,-116.60
19422.95,-126.60
19444.48,-116.99
19466.02,-91.59
19487.55,-83.23
19509.08,-87.14
19530.62,-111.59
19552.15,-123.94
19573.68,-116.91
19595.21,-94.48
19616.75,-85.03
19638.28,-88.00
19659.81,-109.09
19681.35,-122.53
19702.88,-117.30
19724.41,-96.98
19745.95,-86.35
19767.48,-88.46
19789.01,-106.98
19810.55,-121.21
19832.08,-116.52
19853.61,-97.84
19875.15,-85.89
19896.68,-87.14
19918.21,-103.55
19939.75,-118.71
19961.28,-115.50
19982.81,-98.15
20004.35,-84.79
20025.88,-85.18
20047.41,-99.79
20068.95,-116.13
20090.48,-115.58
20112.01,-99.48
20133.54,-84.56
20155.08,-84.01
20176.61,-97.14
20198.14,-114.64
20219.68,-117.22
20241.21,-102.22
20262.74,-85.49
20284.28,-84.09
20305.81,-95.81
20327.34,-114.72
20348.88,-120.11
20370.41,-106.20
20391.94,-87.37
20413.48,-85.10
20435.01,-95.50
20456.54,-116.21
20478.08,-123.55
20499.61,-110.81
20521.14,-89.32
20542.68,-86.12
20564.21,-95.42
20585.74,-118.32
20607.28,-127.07
20628.81,-115.58
20650.34,-90.42
20671.88,-86.35
20693.41,-94.48
20714.94,-120.58
20736.47,-130.66
20758.01,-121.68
20779.54,-90.57
20801.07,-85.65
20822.61,-92.68
20844.14,-124.10
20865.67,-135.27
20887.21,-140.66
20908.74,-90.73
20930.27,-84.79
20951.81,-90.96
20973.34,-140.74
20994.87,-135.43
21016.41,-124.18
21037.94,-91.28
21059.47,-84.32
21081.01,-89.48
21102.54,-121.99
21124.07,-129.41
21145.61,-119.10
21167.14,-92.37
21188.67,-84.40
21210.21,-88.62
21231.74,-114.56
21253.27,-126.21
21274.80,-118.00
21296.34,-94.72
21317.87,-85.65
21339.40,-88.93
21360.94,-110.97
21382.47,-124.10
21404.00,-118.78
21425.54,-97.84
21447.07,-87.60
21468.60,-90.03
21490.14,-109.25
21511.67,-123.24
21533.20,-119.10
21554.74,-99.95
21576.27,-88.46
21597.80,-90.03
21619.34,-106.83
21640.87,-121.75
21662.40,-118.32
21683.94,-100.65
21705.47,-87.76
21727.00,-88.39
21748.54,-102.84
21770.07,-119.25
21791.60,-118.08
21813.13,-101.67
21834.67,-87.29
21856.20,-86.98
21877.73,-98.31
21899.27,-116.52
21920.80,-119.88
21942.33,-104.87
21963.87,-88.78
21985.40,-86.90
22006.93,-92.84
22028.47,-110.81
22050.00,-122.46
