Frequency (Hz),Power (dB),44100.0000,2048,0,2.0000,0,L+R
0.00,-45.56
21.53,-46.27
43.07,-20.01
64.60,-13.84
86.13,-19.31
107.67,-45.56
129.20,-46.74
150.73,-51.03
172.27,-35.17
193.80,-28.14
215.33,-32.75
236.87,-44.70
258.40,-38.14
279.93,-41.34
301.46,-42.59
323.00,-35.48
344.53,-39.31
366.06,-32.28
387.60,-23.21
409.13,-26.03
430.66,-41.73
452.20,-35.56
473.73,-38.14
495.26,-51.11
516.80,-43.84
538.33,-45.56
559.86,-51.74
581.40,-43.77
602.93,-46.42
624.46,-61.43
646.00,-56.97
667.53,-57.28
689.06,-55.72
710.60,-46.42
732.13,-48.38
753.66,-63.69
775.20,-63.22
796.73,-63.54
818.26,-62.05
839.79,-51.11
861.33,-51.74
882.86,-65.10
904.39,-71.35
925.93,-71.19
947.46,-63.69
968.99,-50.80
990.53,-50.49
1012.06,-62.13
1033.59,-71.51
1055.13,-71.19
1076.66,-66.27
1098.19,-53.53
1119.73,-52.36
1141.26,-62.44
1162.79,-72.91
1184.33,-73.69
1205.86,-71.27
1227.39,-57.83
1248.93,-56.11
1270.46,-65.33
1291.99,-75.26
1313.53,-74.63
1335.06,-71.82
1356.59,-58.22
1378.13,-56.03
1399.66,-64.71
1421.19,-77.13
1442.72,-78.07
1464.26,-76.27
1485.79,-62.91
1507.32,-59.79
1528.86,-67.29
1550.39,-81.74
1571.92,-82.99
1593.46,-80.73
1614.99,-63.77
1636.52,-59.63
1658.06,-66.19
1679.59,-80.02
1701.12,-80.96
1722.66,-79.48
1744.19,-66.35
1765.72,-61.58
1787.26,-67.29
1808.79,-80.57
1830.32,-82.37
1851.86,-81.74
1873.39,-69.24
1894.92,-63.77
1916.46,-68.77
1937.99,-81.82
1959.52,-83.54
1981.05,-82.84
2002.59,-70.80
2024.12,-64.40
2045.65,-68.54
2067.19,-83.38
2088.72,-85.81
2110.25,-85.57
2131.79,-74.63
2153.32,-66.97
2174.85,-69.94
2196.39,-85.10
2217.92,-91.12
2239.45,-91.28
2260.99,-76.90
2282.52,-68.15
2304.05,-70.26
2325.59,-81.51
2347.12,-85.10
2368.65,-85.49
2390.19,-77.05
2411.72,-68.15
2433.25,-69.47
2454.79,-79.87
2476.32,-84.32
2497.85,-84.63
2519.38,-79.09
2540.92,-70.73
2562.45,-71.82
2583.98,-83.15
2605.52,-88.00
2627.05,-87.53
2648.58,-80.65
2670.12,-71.43
2691.65,-72.29
2713.18,-84.48
2734.72,-91.51
2756.25,-90.11
2777.78,-83.54
2799.32,-73.46
2820.85,-73.07
2842.38,-83.70
2863.92,-96.12
2885.45,-98.54
2906.98,-89.01
2928.52,-74.63
2950.05,-72.76
2971.58,-81.74
2993.12,-92.68
3014.65,-95.11
3036.18,-91.36
3057.71,-76.20
3079.25,-73.62
3100.78,-81.27
3122.31,-89.87
3143.85,-91.20
3165.38,-90.26
3186.91,-78.15
3208.45,-75.10
3229.98,-81.82
3251.51,-91.12
3273.05,-92.84
3294.58,-91.98
3316.11,-79.32
3337.65,-75.49
3359.18,-82.06
3380.71,-93.39
3402.25,-94.72
3423.78,-93.23
3445.31,-80.88
3466.85,-76.43
3488.38,-81.98
3509.91,-95.18
3531.45,-98.15
3552.98,-97.37
3574.51,-82.92
3596.04,-77.13
3617.58,-81.82
3639.11,-94.56
3660.64,-94.87
3682.18,-93.93
3703.71,-84.87
3725.24,-79.16
3746.78,-82.99
3768.31,-93.78
3789.84,-94.32
3811.38,-93.54
3832.91,-86.59
3854.44,-80.02
3875.98,-83.31
3897.51,-96.28
3919.04,-98.47
3940.58,-95.81
3962.11,-86.90
3983.64,-79.71
4005.18,-82.45
4026.71,-96.51
4048.24,-104.48
4069.78,-102.69
4091.31,-90.57
4112.84,-81.59
4134.38,-83.31
4155.91,-95.73
4177.44,-101.90
4198.97,-103.00
4220.51,-94.25
4242.04,-83.46
4263.57,-83.85
4285.11,-93.07
4306.64,-99.40
4328.17,-100.34
4349.71,-94.32
4371.24,-84.09
4392.77,-83.93
4414.31,-92.84
4435.84,-98.23
4457.37,-98.08
4478.91,-92.21
4500.44,-83.31
4521.97,-83.23
4543.51,-92.21
4565.04,-98.70
4586.57,-99.64
4608.11,-96.12
4629.64,-86.35
4651.17,-85.26
4672.71,-94.09
4694.24,-102.53
4715.77,-102.45
4737.30,-98.00
4758.84,-86.35
4780.37,-84.48
4801.90,-92.61
4823.44,-100.97
4844.97,-101.98
4866.50,-100.19
4888.04,-88.39
4909.57,-85.57
4931.10,-92.68
4952.64,-102.22
4974.17,-103.31
4995.70,-100.11
5017.24,-89.25
5038.77,-85.89
5060.30,-92.53
5081.84,-103.08
5103.37,-102.76
5124.90,-100.58
5146.44,-91.59
5167.97,-87.92
5189.50,-93.70
5211.04,-104.48
5232.57,-105.42
5254.10,-103.94
5275.63,-92.37
5297.17,-87.45
5318.70,-92.76
5340.23,-106.67
5361.77,-109.02
5383.30,-107.14
5404.83,-94.64
5426.37,-88.46
5447.90,-92.45
5469.43,-103.78
5490.97,-105.73
5512.50,-104.72
5534.03,-94.40
5555.57,-87.53
5577.10,-90.26
5598.63,-100.11
5620.17,-103.16
5641.70,-103.00
5663.23,-96.51
5684.77,-89.87
5706.30,-92.14
5727.83,-101.83
5749.37,-104.17
5770.90,-103.62
5792.43,-95.73
5813.96,-88.70
5835.50,-91.12
5857.03,-101.51
5878.56,-104.41
5900.10,-105.03
5921.63,-98.78
5943.16,-90.57
5964.70,-92.14
5986.23,-104.87
6007.76,-110.97
6029.30,-109.09
6050.83,-100.97
6072.36,-91.82
6093.90,-92.53
6115.43,-103.94
6136.96,-109.80
6158.50,-109.48
6180.03,-103.31
6201.56,-92.92
6223.10,-92.45
6244.63,-101.20
6266.16,-106.52
6287.70,-107.45
6309.23,-103.86
6330.76,-94.56
6352.29,-93.31
6373.83,-101.20
6395.36,-106.98
6416.89,-108.86
6438.43,-105.97
6459.96,-95.03
6481.49,-93.47
6503.03,-101.59
6524.56,-108.08
6546.09,-107.84
6567.63,-105.26
6589.16,-96.12
6610.69,-93.93
6632.23,-101.59
6653.76,-113.55
6675.29,-114.41
6696.83,-110.50
6718.36,-95.81
6739.89,-92.29
6761.43,-98.54
6782.96,-107.92
6804.49,-108.63
6826.03,-107.69
6847.56,-97.68
6869.09,-93.39
6890.63,-98.31
6912.16,-107.53
6933.69,-109.25
6955.22,-107.77
6976.76,-98.70
6998.29,-94.72
7019.82,-99.17
7041.36,-108.00
7062.89,-108.63
7084.42,-107.37
7105.96,-99.64
7127.49,-95.18
7149.02,-100.11
7170.56,-112.69
7192.09,-112.06
7213.62,-110.34
7235.16,-100.89
7256.69,-95.42
7278.22,-99.56
7299.76,-114.33
7321.29,-116.99
7342.82,-116.13
7364.36,-103.47
7385.89,-96.36
7407.42,-99.09
7428.96,-109.64
7450.49,-113.47
7472.02,-113.94
7493.55,-105.42
7515.09,-97.61
7536.62,-98.94
7558.15,-107.61
7579.69,-110.34
7601.22,-110.66
7622.75,-106.36
7644.29,-98.78
7665.82,-99.79
7687.35,-108.08
7708.89,-110.58
7730.42,-111.28
7751.95,-106.83
7773.49,-98.47
7795.02,-99.40
7816.55,-109.33
7838.09,-113.47
7859.62,-113.24
7881.15,-107.61
7902.69,-98.23
7924.22,-98.08
7945.75,-107.14
7967.29,-113.78
7988.82,-114.95
8010.35,-110.34
8031.88,-99.25
8053.42,-98.08
8074.95,-106.20
8096.48,-112.06
8118.02,-112.30
8139.55,-108.94
8161.08,-100.81
8182.62,-99.09
8204.15,-105.81
8225.68,-109.72
8247.22,-109.56
8268.75,-107.84
8290.28,-101.28
8311.82,-100.03
8333.35,-107.14
8354.88,-113.16
8376.42,-113.16
8397.95,-110.27
8419.48,-101.75
8441.02,-99.64
8462.55,-107.69
8484.08,-117.77
8505.62,-117.85
8527.15,-114.56
8548.68,-102.61
8570.21,-98.94
8591.75,-105.03
8613.28,-116.05
8634.81,-118.47
8656.35,-118.94
8677.88,-106.28
8699.41,-100.73
8720.95,-104.87
8742.48,-112.06
8764.01,-113.63
8785.55,-113.70
8807.08,-106.98
8828.61,-101.51
8850.15,-104.48
8871.68,-111.91
8893.21,-113.47
8914.75,-114.02
8936.28,-106.12
8957.81,-100.65
8979.35,-104.01
9000.88,-112.69
9022.41,-114.41
9043.95,-113.08
9065.48,-106.52
9087.01,-101.51
9108.54,-104.80
9130.08,-115.89
9151.61,-117.61
9173.14,-116.83
9194.68,-108.23
9216.21,-100.97
9237.74,-103.08
9259.28,-111.67
9280.81,-113.86
9302.34,-114.56
9323.88,-110.97
9345.41,-102.92
9366.94,-103.94
9388.48,-112.53
9410.01,-115.50
9431.54,-115.81
9453.08,-111.13
9474.61,-103.78
9496.14,-104.41
9517.68,-112.84
9539.21,-114.41
9560.74,-113.24
9582.28,-109.72
9603.81,-104.09
9625.34,-105.50
9646.88,-114.72
9668.41,-117.69
9689.94,-117.14
9711.47,-112.69
9733.01,-104.41
9754.54,-104.41
9776.07,-114.64
9797.61,-120.97
9819.14,-121.36
9840.67,-116.67
9862.21,-105.73
9883.74,-103.94
9905.27,-111.75
9926.81,-117.77
9948.34,-118.86
9969.87,-117.14
9991.41,-107.14
10012.94,-104.17
10034.47,-110.11
10056.01,-115.81
10077.54,-115.97
10099.07,-114.88
10120.61,-106.98
10142.14,-104.64
10163.67,-109.88
10185.21,-115.35
10206.74,-115.89
10228.27,-114.41
10249.80,-106.83
10271.34,-104.25
10292.87,-110.34
10314.40,-116.67
10335.94,-117.46
10357.47,-116.67
10379.00,-108.08
10400.54,-104.56
10422.07,-110.03
10443.60,-119.41
10465.14,-120.03
10486.67,-120.03
10508.20,-110.11
10529.74,-105.19
10551.27,-109.48
10572.80,-118.16
10594.34,-118.47
10615.87,-116.44
10637.40,-110.81
10658.94,-105.66
10680.47,-109.02
10702.00,-116.67
10723.54,-116.99
10745.07,-116.21
10766.60,-111.44
10788.13,-106.67
10809.67,-110.11
10831.20,-119.02
10852.73,-119.64
10874.27,-118.47
10895.80,-112.30
10917.33,-107.22
10938.87,-110.66
10960.40,-119.96
10981.93,-121.21
11003.47,-120.66
11025.00,-114.64
11046.53,-107.30
11068.07,-108.86
11089.60,-118.39
11111.13,-120.97
11132.67,-121.60
11154.20,-116.83
11175.73,-107.37
11197.27,-107.84
11218.80,-115.89
11240.33,-119.64
11261.87,-119.96
11283.40,-116.21
11304.93,-108.94
11326.46,-108.23
11348.00,-114.72
11369.53,-118.08
11391.06,-118.24
11412.60,-114.64
11434.13,-108.08
11455.66,-108.31
11477.20,-115.11
11498.73,-118.71
11520.26,-119.41
11541.80,-116.05
11563.33,-108.55
11584.86,-108.23
11606.40,-117.14
11627.93,-120.66
11649.46,-119.80
11671.00,-116.67
11692.53,-109.41
11714.06,-108.16
11735.60,-115.66
11757.13,-122.30
11778.66,-122.22
11800.20,-120.89
11821.73,-110.89
11843.26,-108.16
11864.79,-114.64
11886.33,-120.50
11907.86,-120.74
11929.39,-119.33
11950.93,-112.14
11972.46,-109.33
11993.99,-114.56
12015.53,-119.49
12037.06,-119.72
12058.59,-118.63
12080.13,-112.61
12101.66,-110.19
12123.19,-115.27
12144.73,-119.49
12166.26,-119.64
12187.79,-119.64
12209.33,-113.31
12230.86,-109.25
12252.39,-114.41
12273.93,-123.24
12295.46,-123.16
12316.99,-122.61
12338.53,-114.64
12360.06,-109.09
12381.59,-112.69
12403.13,-120.42
12424.66,-121.44
12446.19,-121.83
12467.72,-116.44
12489.26,-109.25
12510.79,-111.52
12532.32,-119.25
12553.86,-121.13
12575.39,-120.82
12596.92,-115.97
12618.46,-110.34
12639.99,-111.91
12661.52,-118.63
12683.06,-119.64
12704.59,-119.10
12726.12,-115.42
12747.66,-110.66
12769.19,-113.16
12790.72,-120.11
12812.26,-120.66
12833.79,-120.74
12855.32,-116.67
12876.86,-110.50
12898.39,-112.30
12919.92,-122.38
12941.46,-124.57
12962.99,-123.86
12984.52,-118.71
13006.05,-110.74
13027.59,-111.13
13049.12,-118.94
13070.65,-122.30
13092.19,-123.39
13113.72,-121.44
13135.25,-113.63
13156.79,-112.69
13178.32,-118.55
13199.85,-121.68
13221.39,-122.38
13242.92,-120.66
13264.45,-114.02
13285.99,-113.08
13307.52,-118.32
13329.05,-120.74
13350.59,-121.21
13372.12,-120.19
13393.65,-113.70
13415.19,-112.69
13436.72,-119.72
13458.25,-123.16
13479.79,-123.71
13501.32,-121.91
13522.85,-114.33
13544.38,-112.14
13565.92,-118.63
13587.45,-123.39
13608.98,-123.94
13630.52,-123.71
13652.05,-115.27
13673.58,-111.59
13695.12,-116.60
13716.65,-122.61
13738.18,-123.71
13759.72,-123.47
13781.25,-116.75
13802.78,-112.14
13824.32,-116.05
13845.85,-120.66
13867.38,-120.97
13888.92,-120.42
13910.45,-116.13
13931.98,-113.55
13953.52,-117.38
13975.05,-122.53
13996.58,-122.30
14018.12,-120.58
14039.65,-115.19
14061.18,-112.14
14082.71,-117.69
14104.25,-124.41
14125.78,-123.63
14147.31,-121.68
14168.85,-116.83
14190.38,-112.61
14211.91,-116.36
14233.45,-126.21
14254.98,-127.15
14276.51,-125.50
14298.05,-119.96
14319.58,-113.94
14341.11,-116.13
14362.65,-122.07
14384.18,-122.69
14405.71,-123.47
14427.25,-120.82
14448.78,-115.35
14470.31,-116.21
14491.85,-122.38
14513.38,-124.41
14534.91,-124.25
14556.45,-120.66
14577.98,-115.03
14599.51,-116.44
14621.04,-122.07
14642.58,-122.77
14664.11,-122.69
14685.64,-120.19
14707.18,-114.64
14728.71,-115.89
14750.24,-123.39
14771.78,-124.80
14793.31,-125.50
14814.84,-122.22
14836.38,-114.49
14857.91,-114.41
14879.44,-120.97
14900.98,-123.16
14922.51,-123.94
14944.04,-123.71
14965.58,-116.05
14987.11,-114.80
15008.64,-121.28
15030.18,-123.47
15051.71,-123.47
15073.24,-122.38
15094.78,-117.53
15116.31,-115.66
15137.84,-120.27
15159.38,-121.99
15180.91,-121.91
15202.44,-120.82
15223.97,-116.13
15245.51,-115.81
15267.04,-122.07
15288.57,-124.49
15310.11,-124.25
15331.64,-122.53
15353.17,-116.44
15374.71,-114.88
15396.24,-121.83
15417.77,-126.36
15439.31,-125.82
15460.84,-125.50
15482.37,-118.39
15503.91,-115.35
15525.44,-120.97
15546.97,-125.82
15568.51,-125.74
15590.04,-125.27
15611.57,-120.19
15633.11,-115.81
15654.64,-119.64
15676.17,-124.57
15697.71,-124.72
15719.24,-123.94
15740.77,-120.42
15762.30,-116.67
15783.84,-119.10
15805.37,-123.94
15826.90,-124.02
15848.44,-123.63
15869.97,-119.49
15891.50,-115.81
15913.04,-119.72
15934.57,-124.72
15956.10,-124.96
15977.64,-125.50
15999.17,-120.42
16020.70,-115.42
16042.24,-118.47
16063.77,-125.58
16085.30,-126.05
16106.84,-126.05
16128.37,-122.14
16149.90,-115.81
16171.44,-117.53
16192.97,-124.41
16214.50,-125.27
16236.04,-125.35
16257.57,-124.25
16279.10,-117.38
16300.63,-117.92
16322.17,-124.25
16343.70,-125.04
16365.23,-124.96
16386.77,-122.77
16408.30,-117.85
16429.83,-118.86
16451.37,-124.25
16472.90,-124.64
16494.43,-124.18
16515.97,-121.83
16537.50,-117.53
16559.03,-119.33
16580.57,-126.60
16602.10,-126.68
16623.63,-126.83
16645.17,-124.57
16666.70,-118.16
16688.23,-118.24
16709.77,-125.58
16731.30,-126.75
16752.83,-126.44
16774.37,-125.89
16795.90,-119.41
16817.43,-117.92
16838.96,-123.71
16860.50,-126.44
16882.03,-127.54
16903.56,-126.83
16925.10,-121.28
16946.63,-118.08
16968.16,-122.53
16989.70,-125.35
17011.23,-125.89
17032.76,-125.04
17054.30,-119.88
17075.83,-118.71
17097.36,-122.85
17118.90,-125.97
17140.43,-126.99
17161.96,-124.88
17183.50,-119.96
17205.03,-117.92
17226.56,-122.77
17248.10,-125.27
17269.63,-125.89
17291.16,-125.97
17312.70,-120.66
17334.23,-117.53
17355.76,-121.91
17377.29,-127.38
17398.83,-128.71
17420.36,-128.71
17441.89,-122.61
17463.43,-117.92
17484.96,-120.97
17506.49,-125.58
17528.03,-125.74
17549.56,-125.66
17571.09,-122.53
17592.63,-118.71
17614.16,-121.36
17635.69,-125.89
17657.23,-126.60
17678.76,-126.60
17700.29,-123.24
17721.83,-119.72
17743.36,-122.22
17764.89,-125.97
17786.43,-125.50
17807.96,-125.35
17829.49,-122.93
17851.03,-119.17
17872.56,-122.22
17894.09,-128.79
17915.63,-127.93
17937.16,-128.00
17958.69,-124.96
17980.22,-119.10
18001.76,-120.66
18023.29,-126.99
18044.82,-126.83
18066.36,-126.68
18087.89,-126.29
18109.42,-120.03
18130.96,-120.03
18152.49,-125.74
18174.02,-127.22
18195.56,-127.15
18217.09,-126.75
18238.62,-121.75
18260.16,-120.58
18281.69,-125.11
18303.22,-125.66
18324.76,-125.43
18346.29,-124.72
18367.82,-120.19
18389.36,-120.66
18410.89,-125.11
18432.42,-126.21
18453.96,-126.60
18475.49,-125.50
18497.02,-119.96
18518.55,-119.64
18540.09,-126.21
18561.62,-126.99
18583.15,-126.52
18604.69,-125.97
18626.22,-120.19
18647.75,-119.02
18669.29,-124.72
18690.82,-127.07
18712.35,-127.54
18733.89,-128.00
18755.42,-122.77
18776.95,-120.35
18798.49,-124.41
18820.02,-126.21
18841.55,-126.13
18863.09,-126.13
18884.62,-122.77
18906.15,-120.97
18927.69,-124.49
18949.22,-125.89
18970.75,-126.21
18992.29,-126.83
19013.82,-123.00
19035.35,-121.28
19056.88,-126.29
19078.42,-127.77
19099.95,-127.22
19121.48,-127.54
19143.02,-123.55
19164.55,-120.74
19186.08,-124.72
19207.62,-127.77
19229.15,-127.69
19250.68,-128.47
19272.22,-124.96
19293.75,-120.42
19315.28,-123.24
19336.82,-127.46
19358.35,-127.61
19379.88,-128.32
19401.42,-126.13
19422.95,-120.89
19444.48,-122.38
19466.02,-126.52
19487.55,-126.91
19509.08,-127.30
19530.62,-125.43
19552.15,-122.07
19573.68,-123.86
19595.21,-127.15
19616.75,-126.68
19638.28,-126.05
19659.81,-123.55
19681.35,-120.58
19702.88,-123.08
19724.41,-127.69
19745.95,-127.77
19767.48,-127.61
19789.01,-125.66
19810.55,-120.97
19832.08,-122.46
19853.61,-128.40
19875.15,-128.94
19896.68,-128.40
19918.21,-126.83
19939.75,-121.28
19961.28,-121.60
19982.81,-127.15
20004.35,-128.47
20025.88,-129.02
20047.41,-128.24
20068.95,-123.39
20090.48,-122.93
20112.01,-127.30
20133.54,-128.47
20155.08,-127.93
20176.61,-126.75
20198.14,-123.47
20219.68,-123.71
20241.21,-127.69
20262.74,-128.55
20284.28,-128.71
20305.81,-128.00
20327.34,-123.16
20348.88,-122.85
20370.41,-127.93
20391.94,-128.86
20413.48,-128.47
20435.01,-127.85
20456.54,-123.32
20478.08,-121.91
20499.61,-126.60
20521.14,-128.32
20542.68,-128.94
20564.21,-129.96
20585.74,-125.11
20607.28,-121.99
20628.81,-125.66
20650.34,-127.69
20671.88,-127.69
20693.41,-128.08
20714.94,-125.04
20736.47,-122.30
20758.01,-124.96
20779.54,-127.38
20801.07,-127.85
20822.61,-127.85
20844.14,-124.96
20865.67,-123.00
20887.21,-126.13
20908.74,-128.08
20930.27,-127.15
20951.81,-126.75
20973.34,-123.94
20994.87,-121.68
21016.41,-125.89
21037.94,-129.65
21059.47,-129.49
21081.01,-129.72
21102.54,-126.21
21124.07,-122.30
21145.61,-125.11
21167.14,-128.63
21188.67,-128.00
21210.21,-127.93
21231.74,-126.36
21253.27,-122.53
21274.80,-124.10
21296.34,-127.61
21317.87,-128.08
21339.40,-128.71
21360.94,-128.79
21382.47,-124.57
21404.00,-125.04
21425.54,-128.00
21447.07,-127.61
21468.60,-127.54
21490.14,-126.52
21511.67,-123.39
21533.20,-124.96
21554.74,-128.08
21576.27,-127.85
21597.80,-128.40
21619.34,-127.54
21640.87,-123.00
21662.40,-123.94
21683.94,-128.16
21705.47,-127.30
21727.00,-127.15
21748.54,-127.07
21770.07,-123.00
21791.60,-122.53
21813.13,-125.74
21834.67,-126.60
21856.20,-126.99
21877.73,-127.77
21899.27,-124.64
21920.80,-123.24
21942.33,-124.88
21963.87,-125.66
21985.40,-125.35
22006.93,-125.19
22028.47,-123.47
22050.00,-122.85
