Frequency (Hz),Power (dB),44100.0000,2048,0,2.0000,0,L+R
0.00,-45.95
21.53,-48.45
43.07,-35.40
64.60,-29.23
86.13,-34.08
107.67,-41.50
129.20,-37.28
150.73,-42.91
172.27,-41.73
193.80,-34.94
215.33,-39.00
236.87,-41.97
258.40,-34.70
279.93,-38.14
301.46,-43.92
323.00,-36.73
344.53,-39.23
366.06,-43.45
387.60,-36.34
409.13,-38.37
430.66,-43.53
452.20,-36.65
473.73,-38.76
495.26,-46.58
516.80,-41.73
538.33,-43.92
559.86,-45.25
581.40,-36.34
602.93,-37.12
624.46,-47.36
646.00,-42.67
667.53,-43.06
689.06,-46.03
710.60,-38.69
732.13,-39.55
753.66,-46.03
775.20,-39.78
796.73,-40.41
818.26,-48.38
839.79,-42.52
861.33,-41.97
882.86,-48.77
904.39,-44.00
925.93,-43.30
947.46,-48.14
968.99,-42.75
990.53,-43.06
1012.06,-48.38
1033.59,-39.16
1055.13,-38.22
1076.66,-46.42
1098.19,-42.52
1119.73,-40.95
1141.26,-48.22
1162.79,-48.77
1184.33,-46.42
1205.86,-48.30
1227.39,-43.77
1248.93,-43.53
1270.46,-51.03
1291.99,-44.78
1313.53,-42.12
1335.06,-48.38
1356.59,-46.89
1378.13,-43.45
1399.66,-47.36
1421.19,-46.81
1442.72,-44.94
1464.26,-50.33
1485.79,-48.30
1507.32,-45.41
1528.86,-49.86
1550.39,-46.19
1571.92,-43.37
1593.46,-48.38
1614.99,-49.63
1636.52,-47.20
1658.06,-50.25
1679.59,-47.59
1701.12,-43.77
1722.66,-47.28
1744.19,-48.61
1765.72,-46.89
1787.26,-51.19
1808.79,-48.38
1830.32,-46.03
1851.86,-50.02
1873.39,-49.86
1894.92,-45.33
1916.46,-47.36
1937.99,-49.94
1959.52,-46.97
1981.05,-49.31
2002.59,-51.35
2024.12,-48.14
2045.65,-49.63
2067.19,-51.89
2088.72,-47.36
2110.25,-46.97
2131.79,-49.70
2153.32,-48.45
2174.85,-49.24
2196.39,-51.11
2217.92,-47.83
2239.45,-47.52
2260.99,-51.03
2282.52,-48.22
2304.05,-49.08
2325.59,-50.49
2347.12,-48.53
2368.65,-49.47
2390.19,-51.50
2411.72,-47.28
2433.25,-48.69
2454.79,-53.77
2476.32,-51.66
2497.85,-52.21
2519.38,-51.74
2540.92,-49.00
2562.45,-51.58
2583.98,-55.02
2605.52,-49.55
2627.05,-48.84
2648.58,-52.52
2670.12,-50.95
2691.65,-50.88
2713.18,-53.92
2734.72,-49.78
2756.25,-50.41
2777.78,-53.46
2799.32,-50.56
2820.85,-50.72
2842.38,-52.91
2863.92,-51.11
2885.45,-52.21
2906.98,-52.75
2928.52,-47.44
2950.05,-48.69
2971.58,-53.61
2993.12,-51.66
3014.65,-52.05
3036.18,-53.53
3057.71,-51.58
3079.25,-50.88
3100.78,-51.89
3122.31,-51.42
3143.85,-49.78
3165.38,-53.06
3186.91,-53.46
3208.45,-52.05
3229.98,-53.77
3251.51,-54.55
3273.05,-54.94
3294.58,-56.35
3316.11,-53.14
3337.65,-50.80
3359.18,-55.02
3380.71,-54.08
3402.25,-52.60
3423.78,-55.64
3445.31,-54.47
3466.85,-53.61
3488.38,-55.10
3509.91,-54.55
3531.45,-54.16
3552.98,-56.19
3574.51,-54.55
3596.04,-52.36
3617.58,-55.49
3639.11,-54.24
3660.64,-51.58
3682.18,-52.44
3703.71,-54.47
3725.24,-53.69
3746.78,-54.86
3768.31,-56.50
3789.84,-57.13
3811.38,-55.64
3832.91,-56.35
3854.44,-55.33
3875.98,-56.74
3897.51,-56.89
3919.04,-57.05
3940.58,-54.71
3962.11,-53.69
3983.64,-53.92
4005.18,-55.72
4026.71,-56.89
4048.24,-56.03
4069.78,-55.02
4091.31,-56.74
4112.84,-55.72
4134.38,-53.53
4155.91,-54.39
4177.44,-55.02
4198.97,-54.39
4220.51,-56.89
4242.04,-57.44
4263.57,-56.03
4285.11,-56.74
4306.64,-57.21
4328.17,-57.28
4349.71,-56.27
4371.24,-55.02
4392.77,-56.35
4414.31,-57.68
4435.84,-59.71
4457.37,-59.39
4478.91,-57.60
4500.44,-57.36
4521.97,-58.22
4543.51,-56.82
4565.04,-57.05
4586.57,-57.52
4608.11,-57.28
4629.64,-56.27
4651.17,-57.83
4672.71,-57.05
4694.24,-58.22
4715.77,-59.08
4737.30,-59.63
4758.84,-58.22
4780.37,-56.19
4801.90,-57.36
4823.44,-57.91
4844.97,-58.77
4866.50,-58.38
4888.04,-58.14
4909.57,-58.22
4931.10,-57.83
4952.64,-57.83
4974.17,-58.07
4995.70,-57.83
5017.24,-57.05
5038.77,-58.14
5060.30,-58.30
5081.84,-58.77
5103.37,-59.16
5124.90,-59.55
5146.44,-59.55
5167.97,-60.96
5189.50,-61.04
5211.04,-59.79
5232.57,-58.93
5254.10,-57.99
5275.63,-58.93
5297.17,-60.02
5318.70,-58.14
5340.23,-58.38
5361.77,-60.88
5383.30,-59.94
5404.83,-60.49
5426.37,-59.79
5447.90,-58.30
5469.43,-59.71
5490.97,-59.79
5512.50,-60.41
5534.03,-60.18
5555.57,-59.86
5577.10,-59.08
5598.63,-59.00
5620.17,-61.50
5641.70,-61.66
5663.23,-59.00
5684.77,-59.00
5706.30,-59.86
5727.83,-59.32
5749.37,-61.43
5770.90,-62.68
5792.43,-61.19
5813.96,-60.49
5835.50,-60.18
5857.03,-59.16
5878.56,-60.18
5900.10,-61.89
5921.63,-62.29
5943.16,-61.50
5964.70,-61.35
5986.23,-62.21
6007.76,-61.58
6029.30,-60.80
6050.83,-61.35
6072.36,-62.44
6093.90,-61.27
6115.43,-61.27
6136.96,-62.13
6158.50,-62.13
6180.03,-61.50
6201.56,-62.05
6223.10,-61.35
6244.63,-59.86
6266.16,-59.39
6287.70,-60.88
6309.23,-61.66
6330.76,-63.30
6352.29,-62.83
6373.83,-60.72
6395.36,-60.72
6416.89,-60.80
6438.43,-62.29
6459.96,-63.93
6481.49,-61.58
6503.03,-62.52
6524.56,-61.97
6546.09,-61.97
6567.63,-61.66
6589.16,-63.54
6610.69,-62.68
6632.23,-62.13
6653.76,-64.24
6675.29,-64.08
6696.83,-62.36
6718.36,-61.74
6739.89,-61.66
6761.43,-61.50
6782.96,-61.19
6804.49,-62.13
6826.03,-62.99
6847.56,-64.16
6869.09,-63.61
6890.63,-62.52
6912.16,-62.83
6933.69,-64.00
6955.22,-65.49
6976.76,-64.24
6998.29,-64.79
7019.82,-63.77
7041.36,-63.15
7062.89,-63.93
7084.42,-63.30
7105.96,-63.15
7127.49,-64.00
7149.02,-65.02
7170.56,-66.97
7192.09,-65.72
7213.62,-65.18
7235.16,-66.97
7256.69,-66.51
7278.22,-65.57
7299.76,-65.57
7321.29,-64.86
7342.82,-63.69
7364.36,-63.85
7385.89,-63.69
7407.42,-65.10
7428.96,-64.47
7450.49,-63.38
7472.02,-64.24
7493.55,-64.32
7515.09,-64.94
7536.62,-64.94
7558.15,-64.47
7579.69,-63.46
7601.22,-64.63
7622.75,-65.26
7644.29,-65.10
7665.82,-65.18
7687.35,-65.33
7708.89,-65.02
7730.42,-63.46
7751.95,-63.22
7773.49,-63.15
7795.02,-64.24
7816.55,-65.80
7838.09,-67.13
7859.62,-66.04
7881.15,-65.88
7902.69,-66.66
7924.22,-67.52
7945.75,-66.19
7967.29,-64.32
7988.82,-66.27
8010.35,-67.99
8031.88,-65.96
8053.42,-66.58
8074.95,-67.76
8096.48,-65.18
8118.02,-66.82
8139.55,-68.38
8161.08,-66.66
8182.62,-67.13
8204.15,-68.15
8225.68,-66.51
8247.22,-65.49
8268.75,-66.74
8290.28,-65.10
8311.82,-65.72
8333.35,-67.76
8354.88,-67.05
8376.42,-65.65
8397.95,-66.90
8419.48,-66.11
8441.02,-67.13
8462.55,-70.73
8484.08,-68.30
8505.62,-67.44
8527.15,-69.32
8548.68,-68.38
8570.21,-67.83
8591.75,-68.93
8613.28,-67.91
8634.81,-68.69
8656.35,-69.55
8677.88,-66.04
8699.41,-66.66
8720.95,-69.55
8742.48,-68.54
8764.01,-68.93
8785.55,-69.79
8807.08,-67.52
8828.61,-68.62
8850.15,-69.01
8871.68,-67.99
8893.21,-67.76
8914.75,-68.62
8936.28,-70.65
8957.81,-68.15
8979.35,-68.93
9000.88,-69.01
9022.41,-67.83
9043.95,-71.12
9065.48,-70.80
9087.01,-68.07
9108.54,-70.10
9130.08,-68.93
9151.61,-67.44
9173.14,-70.96
9194.68,-67.99
9216.21,-68.69
9237.74,-71.43
9259.28,-70.73
9280.81,-67.76
9302.34,-70.80
9323.88,-70.88
9345.41,-69.24
9366.94,-69.40
9388.48,-71.04
9410.01,-69.08
9431.54,-70.26
9453.08,-71.12
9474.61,-69.24
9496.14,-69.71
9517.68,-70.80
9539.21,-68.85
9560.74,-70.33
9582.28,-71.35
9603.81,-70.96
9625.34,-70.80
9646.88,-71.27
9668.41,-69.24
9689.94,-70.33
9711.47,-71.43
9733.01,-69.55
9754.54,-71.27
9776.07,-72.84
9797.61,-69.94
9819.14,-71.58
9840.67,-74.40
9862.21,-72.76
9883.74,-71.58
9905.27,-70.88
9926.81,-71.82
9948.34,-72.05
9969.87,-75.02
9991.41,-72.21
10012.94,-69.24
10034.47,-71.04
10056.01,-70.33
10077.54,-70.57
10099.07,-74.24
10120.61,-74.24
10142.14,-72.52
10163.67,-73.38
10185.21,-72.05
10206.74,-72.99
10228.27,-73.77
10249.80,-71.43
10271.34,-73.38
10292.87,-74.24
10314.40,-71.35
10335.94,-71.98
10357.47,-74.63
10379.00,-72.91
10400.54,-72.29
10422.07,-73.46
10443.60,-73.93
10465.14,-72.52
10486.67,-74.32
10508.20,-73.69
10529.74,-72.84
10551.27,-74.16
10572.80,-75.80
10594.34,-73.46
10615.87,-74.40
10637.40,-74.71
10658.94,-73.30
10680.47,-73.38
10702.00,-74.16
10723.54,-73.62
10745.07,-73.30
10766.60,-73.46
10788.13,-73.15
10809.67,-74.48
10831.20,-73.07
10852.73,-73.85
10874.27,-75.02
10895.80,-75.41
10917.33,-74.55
10938.87,-75.10
10960.40,-74.40
10981.93,-72.99
11003.47,-75.02
11025.00,-76.51
11046.53,-74.09
11068.07,-73.30
11089.60,-73.93
11111.13,-74.87
11132.67,-74.95
11154.20,-75.02
11175.73,-74.87
11197.27,-74.63
11218.80,-73.85
11240.33,-74.95
11261.87,-75.80
11283.40,-75.80
11304.93,-75.34
11326.46,-76.20
11348.00,-74.01
11369.53,-74.87
11391.06,-75.80
11412.60,-76.35
11434.13,-76.12
11455.66,-76.43
11477.20,-77.37
11498.73,-76.12
11520.26,-76.66
11541.80,-76.98
11563.33,-77.13
11584.86,-77.21
11606.40,-76.66
11627.93,-76.74
11649.46,-77.60
11671.00,-76.90
11692.53,-77.05
11714.06,-76.66
11735.60,-75.73
11757.13,-75.73
11778.66,-77.21
11800.20,-75.41
11821.73,-75.88
11843.26,-77.68
11864.79,-77.37
11886.33,-76.27
11907.86,-76.90
11929.39,-76.74
11950.93,-75.80
11972.46,-78.23
11993.99,-78.62
12015.53,-76.59
12037.06,-75.34
12058.59,-76.12
12080.13,-77.60
12101.66,-78.15
12123.19,-76.74
12144.73,-76.59
12166.26,-77.05
12187.79,-75.96
12209.33,-76.82
12230.86,-78.54
12252.39,-76.90
12273.93,-76.27
12295.46,-78.85
12316.99,-77.99
12338.53,-76.74
12360.06,-78.07
12381.59,-80.49
12403.13,-79.01
12424.66,-77.76
12446.19,-79.24
12467.72,-77.45
12489.26,-77.68
12510.79,-77.99
12532.32,-77.91
12553.86,-77.60
12575.39,-78.38
12596.92,-76.66
12618.46,-76.98
12639.99,-77.45
12661.52,-77.21
12683.06,-79.09
12704.59,-77.91
12726.12,-76.20
12747.66,-77.52
12769.19,-78.70
12790.72,-77.99
12812.26,-78.70
12833.79,-78.77
12855.32,-77.45
12876.86,-79.48
12898.39,-80.88
12919.92,-78.85
12941.46,-78.31
12962.99,-80.49
12984.52,-79.01
13006.05,-78.54
13027.59,-79.63
13049.12,-79.79
13070.65,-78.54
13092.19,-79.32
13113.72,-78.07
13135.25,-78.93
13156.79,-79.09
13178.32,-79.09
13199.85,-80.10
13221.39,-79.40
13242.92,-77.29
13264.45,-78.46
13285.99,-79.87
13307.52,-79.09
13329.05,-80.10
13350.59,-80.02
13372.12,-78.38
13393.65,-78.23
13415.19,-79.71
13436.72,-81.20
13458.25,-80.34
13479.79,-80.65
13501.32,-80.57
13522.85,-79.01
13544.38,-79.40
13565.92,-78.85
13587.45,-81.04
13608.98,-82.76
13630.52,-78.70
13652.05,-78.23
13673.58,-80.26
13695.12,-78.38
13716.65,-78.77
13738.18,-81.27
13759.72,-78.85
13781.25,-78.54
13802.78,-80.57
13824.32,-80.26
13845.85,-80.73
13867.38,-80.88
13888.92,-80.88
13910.45,-79.63
13931.98,-81.43
13953.52,-81.59
13975.05,-81.98
13996.58,-83.07
14018.12,-81.67
14039.65,-79.01
14061.18,-80.81
14082.71,-80.02
14104.25,-80.49
14125.78,-84.17
14147.31,-80.65
14168.85,-78.93
14190.38,-80.81
14211.91,-79.24
14233.45,-80.10
14254.98,-83.15
14276.51,-81.27
14298.05,-79.24
14319.58,-80.18
14341.11,-80.34
14362.65,-81.59
14384.18,-82.68
14405.71,-83.07
14427.25,-80.34
14448.78,-80.88
14470.31,-81.35
14491.85,-81.20
14513.38,-82.76
14534.91,-82.99
14556.45,-79.95
14577.98,-82.06
14599.51,-80.57
14621.04,-79.87
14642.58,-82.29
14664.11,-81.35
14685.64,-79.71
14707.18,-81.04
14728.71,-80.18
14750.24,-80.10
14771.78,-82.45
14793.31,-82.06
14814.84,-81.59
14836.38,-81.43
14857.91,-81.35
14879.44,-82.92
14900.98,-82.68
14922.51,-83.93
14944.04,-83.07
14965.58,-81.74
14987.11,-82.06
15008.64,-80.96
15030.18,-81.90
15051.71,-82.84
15073.24,-80.81
15094.78,-81.98
15116.31,-81.67
15137.84,-80.18
15159.38,-82.29
15180.91,-82.53
15202.44,-81.59
15223.97,-81.67
15245.51,-81.74
15267.04,-81.74
15288.57,-82.99
15310.11,-82.84
15331.64,-82.84
15353.17,-81.12
15374.71,-82.68
15396.24,-82.29
15417.77,-81.67
15439.31,-84.71
15460.84,-82.60
15482.37,-81.90
15503.91,-83.54
15525.44,-81.04
15546.97,-81.98
15568.51,-84.09
15590.04,-81.51
15611.57,-82.92
15633.11,-83.54
15654.64,-81.74
15676.17,-82.60
15697.71,-82.45
15719.24,-82.13
15740.77,-83.23
15762.30,-83.38
15783.84,-83.15
15805.37,-82.84
15826.90,-82.60
15848.44,-82.29
15869.97,-82.99
15891.50,-84.40
15913.04,-83.70
15934.57,-82.45
15956.10,-84.32
15977.64,-82.37
15999.17,-82.68
16020.70,-84.87
16042.24,-82.21
16063.77,-82.76
16085.30,-83.62
16106.84,-82.13
16128.37,-83.23
16149.90,-84.56
16171.44,-82.92
16192.97,-82.92
16214.50,-82.37
16236.04,-82.76
16257.57,-84.32
16279.10,-84.95
16300.63,-85.03
16322.17,-84.09
16343.70,-84.01
16365.23,-83.85
16386.77,-83.38
16408.30,-85.81
16429.83,-85.65
16451.37,-83.93
16472.90,-84.95
16494.43,-83.23
16515.97,-82.60
16537.50,-85.89
16559.03,-84.79
16580.57,-84.24
16602.10,-84.24
16623.63,-83.46
16645.17,-84.56
16666.70,-85.57
16688.23,-84.01
16709.77,-83.54
16731.30,-83.31
16752.83,-83.38
16774.37,-83.62
16795.90,-84.71
16817.43,-85.65
16838.96,-84.63
16860.50,-83.62
16882.03,-83.78
16903.56,-83.93
16925.10,-86.28
16946.63,-86.51
16968.16,-84.87
16989.70,-84.63
17011.23,-83.70
17032.76,-82.76
17054.30,-85.42
17075.83,-86.51
17097.36,-86.12
17118.90,-84.79
17140.43,-84.32
17161.96,-84.40
17183.50,-84.79
17205.03,-85.18
17226.56,-85.18
17248.10,-84.79
17269.63,-84.24
17291.16,-83.78
17312.70,-84.40
17334.23,-85.81
17355.76,-85.42
17377.29,-85.03
17398.83,-84.95
17420.36,-83.78
17441.89,-85.57
17463.43,-86.59
17484.96,-85.03
17506.49,-85.89
17528.03,-85.10
17549.56,-84.40
17571.09,-85.81
17592.63,-86.74
17614.16,-86.51
17635.69,-85.81
17657.23,-85.34
17678.76,-85.10
17700.29,-84.87
17721.83,-85.42
17743.36,-85.96
17764.89,-85.34
17786.43,-85.18
17807.96,-84.95
17829.49,-84.87
17851.03,-86.28
17872.56,-85.89
17894.09,-85.49
17915.63,-87.14
17937.16,-86.35
17958.69,-86.35
17980.22,-86.74
18001.76,-85.49
18023.29,-85.73
18044.82,-86.74
18066.36,-85.96
18087.89,-85.81
18109.42,-86.12
18130.96,-85.34
18152.49,-85.03
18174.02,-85.57
18195.56,-85.42
18217.09,-85.42
18238.62,-86.04
18260.16,-86.82
18281.69,-86.12
18303.22,-87.06
18324.76,-86.67
18346.29,-86.35
18367.82,-87.92
18389.36,-87.84
18410.89,-87.37
18432.42,-88.70
18453.96,-88.15
18475.49,-87.45
18497.02,-87.53
18518.55,-86.98
18540.09,-86.43
18561.62,-88.23
18583.15,-87.60
18604.69,-86.90
18626.22,-86.51
18647.75,-86.12
18669.29,-85.49
18690.82,-86.82
18712.35,-87.21
18733.89,-86.12
18755.42,-86.35
18776.95,-86.90
18798.49,-85.57
18820.02,-87.60
18841.55,-88.78
18863.09,-87.37
18884.62,-87.68
18906.15,-88.15
18927.69,-86.67
18949.22,-87.37
18970.75,-89.40
18992.29,-88.23
19013.82,-86.74
19035.35,-87.29
19056.88,-86.90
19078.42,-87.29
19099.95,-89.01
19121.48,-87.76
19143.02,-86.28
19164.55,-86.59
19186.08,-86.04
19207.62,-86.82
19229.15,-88.70
19250.68,-88.23
19272.22,-87.53
19293.75,-87.53
19315.28,-86.74
19336.82,-87.14
19358.35,-89.64
19379.88,-88.62
19401.42,-88.07
19422.95,-88.07
19444.48,-88.70
19466.02,-87.21
19487.55,-88.85
19509.08,-89.56
19530.62,-87.53
19552.15,-88.00
19573.68,-87.68
19595.21,-87.29
19616.75,-89.56
19638.28,-88.31
19659.81,-87.76
19681.35,-88.39
19702.88,-87.21
19724.41,-87.21
19745.95,-89.79
19767.48,-88.85
19789.01,-88.54
19810.55,-88.93
19832.08,-88.31
19853.61,-87.21
19875.15,-90.42
19896.68,-90.57
19918.21,-88.70
19939.75,-88.93
19961.28,-90.50
19982.81,-87.29
20004.35,-88.70
20025.88,-89.79
20047.41,-88.54
20068.95,-89.09
20090.48,-88.93
20112.01,-88.07
20133.54,-89.64
20155.08,-90.18
20176.61,-89.56
20198.14,-89.95
20219.68,-90.11
20241.21,-89.48
20262.74,-91.67
20284.28,-91.82
20305.81,-89.64
20327.34,-89.48
20348.88,-91.28
20370.41,-88.62
20391.94,-89.17
20413.48,-92.92
20435.01,-89.79
20456.54,-88.78
20478.08,-90.03
20499.61,-88.00
20521.14,-89.09
20542.68,-91.20
20564.21,-89.48
20585.74,-89.25
20607.28,-90.03
20628.81,-88.23
20650.34,-89.48
20671.88,-90.42
20693.41,-89.48
20714.94,-89.79
20736.47,-90.73
20758.01,-89.95
20779.54,-89.87
20801.07,-91.04
20822.61,-89.87
20844.14,-89.25
20865.67,-91.82
20887.21,-89.71
20908.74,-89.56
20930.27,-92.37
20951.81,-89.64
20973.34,-88.93
20994.87,-91.82
21016.41,-89.56
21037.94,-90.03
21059.47,-92.37
21081.01,-89.79
21102.54,-90.11
21124.07,-92.29
21145.61,-90.73
21167.14,-91.28
21188.67,-92.45
21210.21,-91.75
21231.74,-92.14
21253.27,-92.37
21274.80,-91.59
21296.34,-90.65
21317.87,-92.45
21339.40,-92.68
21360.94,-90.65
21382.47,-91.59
21404.00,-90.73
21425.54,-90.26
21447.07,-92.29
21468.60,-91.20
21490.14,-90.65
21511.67,-93.00
21533.20,-91.90
21554.74,-92.45
21576.27,-93.39
21597.80,-91.98
21619.34,-91.98
21640.87,-91.75
21662.40,-92.61
21683.94,-92.61
21705.47,-92.14
21727.00,-92.61
21748.54,-90.96
21770.07,-91.59
21791.60,-94.17
21813.13,-90.50
21834.67,-91.28
21856.20,-92.61
21877.73,-90.57
21899.27,-91.43
21920.80,-93.39
21942.33,-91.28
21963.87,-92.29
21985.40,-93.23
22006.93,-92.45
22028.47,-91.51
22050.00,-92.21
