Frequency (Hz),Power (dB),44100.0000,2048,0,2.0000,0,L+R
0.00,-20.79
21.53,-26.81
43.07,-79.63
64.60,-79.32
86.13,-66.35
107.67,-38.92
129.20,-31.97
150.73,-37.05
172.27,-67.21
193.80,-72.99
215.33,-60.88
236.87,-36.34
258.40,-28.29
279.93,-32.36
301.46,-55.25
323.00,-67.37
344.53,-57.52
366.06,-35.56
387.60,-26.96
409.13,-30.09
430.66,-49.39
452.20,-65.65
473.73,-70.88
495.26,-55.10
516.80,-45.95
538.33,-47.67
559.86,-60.57
581.40,-75.41
602.93,-65.41
624.46,-44.47
646.00,-36.65
667.53,-38.61
689.06,-51.42
710.60,-70.18
732.13,-69.01
753.66,-51.50
775.20,-43.45
796.73,-44.31
818.26,-53.92
839.79,-70.96
861.33,-67.83
882.86,-50.25
904.39,-40.87
925.93,-39.47
947.46,-46.27
968.99,-63.30
990.53,-73.23
1012.06,-59.63
1033.59,-51.50
1055.13,-50.80
1076.66,-55.25
1098.19,-66.66
1119.73,-74.95
1141.26,-60.33
1162.79,-52.05
1184.33,-50.25
1205.86,-55.10
1227.39,-67.37
1248.93,-72.99
1270.46,-62.52
1291.99,-56.27
1313.53,-54.39
1335.06,-55.25
1356.59,-62.44
1378.13,-67.68
1399.66,-54.32
1421.19,-51.27
1442.72,-53.77
1464.26,-59.16
1485.79,-69.79
1507.32,-64.55
1528.86,-51.35
1550.39,-44.55
1571.92,-42.67
1593.46,-43.61
1614.99,-50.56
1636.52,-58.22
1658.06,-48.84
1679.59,-44.08
1701.12,-43.92
1722.66,-44.47
1744.19,-51.81
1765.72,-64.32
1787.26,-59.16
1808.79,-53.38
1830.32,-51.03
1851.86,-51.50
1873.39,-57.99
1894.92,-62.52
1916.46,-50.80
1937.99,-45.41
1959.52,-44.47
1981.05,-43.30
2002.59,-45.95
2024.12,-52.52
2045.65,-47.36
2067.19,-43.30
2088.72,-43.22
2110.25,-44.31
2131.79,-48.30
2153.32,-55.02
2174.85,-55.64
2196.39,-52.67
2217.92,-54.78
2239.45,-60.02
2260.99,-67.68
2282.52,-72.68
2304.05,-65.57
2325.59,-59.32
2347.12,-54.63
2368.65,-52.67
2390.19,-52.67
2411.72,-52.60
2433.25,-48.61
2454.79,-45.56
2476.32,-43.61
2497.85,-43.45
2519.38,-44.78
2540.92,-48.84
2562.45,-51.50
2583.98,-49.16
2605.52,-49.86
2627.05,-50.88
2648.58,-53.38
2670.12,-57.75
2691.65,-60.49
2713.18,-58.85
2734.72,-56.66
2756.25,-54.94
2777.78,-52.44
2799.32,-52.67
2820.85,-55.02
2842.38,-52.75
2863.92,-51.19
2885.45,-50.33
2906.98,-49.31
2928.52,-50.80
2950.05,-52.60
2971.58,-52.05
2993.12,-53.77
3014.65,-54.78
3036.18,-57.36
3057.71,-58.38
3079.25,-60.33
3100.78,-60.25
3122.31,-58.14
3143.85,-57.99
3165.38,-58.30
3186.91,-57.99
3208.45,-59.55
3229.98,-59.47
3251.51,-59.94
3273.05,-60.25
3294.58,-61.66
3316.11,-61.11
3337.65,-60.02
3359.18,-59.63
3380.71,-59.08
3402.25,-58.61
3423.78,-61.11
3445.31,-61.19
3466.85,-62.21
3488.38,-63.69
3509.91,-61.43
3531.45,-59.86
3552.98,-58.30
3574.51,-57.36
3596.04,-55.96
3617.58,-57.13
3639.11,-58.69
3660.64,-59.16
3682.18,-60.57
3703.71,-60.96
3725.24,-59.63
3746.78,-61.89
3768.31,-65.33
3789.84,-68.15
3811.38,-73.38
3832.91,-75.02
3854.44,-72.05
3875.98,-73.77
3897.51,-77.29
3919.04,-76.82
3940.58,-73.62
3962.11,-70.26
3983.64,-65.49
4005.18,-65.18
4026.71,-64.55
4048.24,-65.33
4069.78,-64.40
4091.31,-63.61
4112.84,-59.86
4134.38,-59.86
4155.91,-60.80
4177.44,-62.05
4198.97,-61.50
4220.51,-61.35
4242.04,-59.39
4263.57,-60.49
4285.11,-64.08
4306.64,-65.49
4328.17,-66.19
4349.71,-64.94
4371.24,-61.58
4392.77,-61.43
4414.31,-62.44
4435.84,-63.77
4457.37,-63.07
4478.91,-62.91
4500.44,-61.58
4521.97,-61.89
4543.51,-63.30
4565.04,-63.54
4586.57,-63.93
4608.11,-63.22
4629.64,-61.35
4651.17,-61.11
4672.71,-61.82
4694.24,-62.44
4715.77,-62.68
4737.30,-61.74
4758.84,-60.10
4780.37,-59.39
4801.90,-59.86
4823.44,-61.04
4844.97,-60.10
4866.50,-59.08
4888.04,-58.07
4909.57,-58.46
4931.10,-60.96
4952.64,-63.38
4974.17,-65.80
4995.70,-65.88
5017.24,-64.08
5038.77,-64.24
5060.30,-64.55
5081.84,-66.04
5103.37,-65.10
5124.90,-61.89
5146.44,-59.00
5167.97,-59.86
5189.50,-59.63
5211.04,-61.35
5232.57,-61.11
5254.10,-59.55
5275.63,-57.21
5297.17,-58.30
5318.70,-58.14
5340.23,-59.94
5361.77,-62.60
5383.30,-62.83
5404.83,-62.75
5426.37,-65.10
5447.90,-65.33
5469.43,-67.05
5490.97,-65.96
5512.50,-64.79
5534.03,-62.83
5555.57,-64.40
5577.10,-63.69
5598.63,-64.08
5620.17,-64.86
5641.70,-63.85
5663.23,-62.83
5684.77,-64.16
5706.30,-63.46
5727.83,-64.32
5749.37,-65.57
5770.90,-64.63
5792.43,-63.22
5813.96,-64.94
5835.50,-65.33
5857.03,-67.44
5878.56,-70.02
5900.10,-68.69
5921.63,-67.60
5943.16,-69.40
5964.70,-69.55
5986.23,-70.33
6007.76,-71.58
6029.30,-72.13
6050.83,-69.71
6072.36,-70.10
6093.90,-69.47
6115.43,-67.83
6136.96,-68.38
6158.50,-67.44
6180.03,-65.88
6201.56,-65.88
6223.10,-64.40
6244.63,-64.55
6266.16,-65.33
6287.70,-67.05
6309.23,-67.44
6330.76,-69.79
6352.29,-70.88
6373.83,-72.29
6395.36,-73.07
6416.89,-74.40
6438.43,-75.34
6459.96,-74.16
6481.49,-71.58
6503.03,-68.85
6524.56,-67.29
6546.09,-66.43
6567.63,-65.41
6589.16,-64.32
6610.69,-63.46
6632.23,-63.85
6653.76,-63.46
6675.29,-64.47
6696.83,-65.72
6718.36,-66.97
6739.89,-67.68
6761.43,-69.55
6782.96,-69.32
6804.49,-70.88
6826.03,-71.12
6847.56,-70.10
6869.09,-68.46
6890.63,-68.54
6912.16,-66.51
6933.69,-66.35
6955.22,-66.35
6976.76,-66.74
6998.29,-65.33
7019.82,-65.65
7041.36,-63.85
7062.89,-63.85
7084.42,-64.63
7105.96,-65.72
7127.49,-66.11
7149.02,-67.60
7170.56,-66.04
7192.09,-65.49
7213.62,-66.43
7235.16,-68.07
7256.69,-66.66
7278.22,-67.37
7299.76,-66.35
7321.29,-65.33
7342.82,-66.35
7364.36,-68.22
7385.89,-68.54
7407.42,-68.85
7428.96,-68.22
7450.49,-66.19
7472.02,-66.35
7493.55,-67.37
7515.09,-66.74
7536.62,-66.51
7558.15,-66.58
7579.69,-64.47
7601.22,-64.79
7622.75,-66.19
7644.29,-66.27
7665.82,-66.35
7687.35,-68.15
7708.89,-65.96
7730.42,-65.96
7751.95,-67.76
7773.49,-68.85
7795.02,-68.69
7816.55,-70.57
7838.09,-68.77
7859.62,-69.55
7881.15,-71.82
7902.69,-71.82
7924.22,-70.26
7945.75,-70.49
7967.29,-67.29
7988.82,-66.82
8010.35,-68.69
8031.88,-69.79
8053.42,-69.01
8074.95,-69.94
8096.48,-69.24
8118.02,-69.08
8139.55,-71.51
8161.08,-74.16
8182.62,-74.87
8204.15,-75.88
8225.68,-76.12
8247.22,-74.63
8268.75,-74.79
8290.28,-77.05
8311.82,-78.70
8333.35,-78.07
8354.88,-77.52
8376.42,-76.35
8397.95,-77.05
8419.48,-77.60
8441.02,-77.68
8462.55,-76.98
8484.08,-77.37
8505.62,-75.96
8527.15,-75.34
8548.68,-76.12
8570.21,-76.51
8591.75,-76.27
8613.28,-75.96
8634.81,-76.90
8656.35,-78.23
8677.88,-79.32
8699.41,-78.85
8720.95,-76.98
8742.48,-75.10
8764.01,-75.02
8785.55,-74.48
8807.08,-74.95
8828.61,-75.57
8850.15,-74.32
8871.68,-72.05
8893.21,-72.21
8914.75,-71.19
8936.28,-70.88
8957.81,-71.04
8979.35,-71.12
9000.88,-69.63
9022.41,-71.27
9043.95,-70.80
9065.48,-71.12
9087.01,-71.74
9108.54,-72.13
9130.08,-70.88
9151.61,-71.82
9173.14,-70.49
9194.68,-70.49
9216.21,-70.10
9237.74,-69.71
9259.28,-67.99
9280.81,-69.40
9302.34,-67.99
9323.88,-68.22
9345.41,-68.46
9366.94,-69.16
9388.48,-67.44
9410.01,-69.40
9431.54,-68.38
9453.08,-68.22
9474.61,-68.38
9496.14,-69.24
9517.68,-67.68
9539.21,-69.01
9560.74,-68.38
9582.28,-67.99
9603.81,-67.99
9625.34,-68.85
9646.88,-67.37
9668.41,-68.30
9689.94,-67.76
9711.47,-66.97
9733.01,-67.05
9754.54,-68.54
9776.07,-68.38
9797.61,-69.55
9819.14,-70.10
9840.67,-69.47
9862.21,-69.08
9883.74,-68.77
9905.27,-67.83
9926.81,-68.46
9948.34,-68.62
9969.87,-67.13
9991.41,-66.66
10012.94,-67.76
10034.47,-67.29
10056.01,-68.22
10077.54,-68.54
10099.07,-67.68
10120.61,-67.52
10142.14,-68.85
10163.67,-69.08
10185.21,-70.26
10206.74,-70.96
10228.27,-70.80
10249.80,-70.88
10271.34,-72.05
10292.87,-70.96
10314.40,-71.27
10335.94,-70.88
10357.47,-69.79
10379.00,-68.54
10400.54,-69.47
10422.07,-68.93
10443.60,-70.41
10465.14,-70.18
10486.67,-70.49
10508.20,-69.47
10529.74,-70.49
10551.27,-70.49
10572.80,-71.90
10594.34,-71.82
10615.87,-73.30
10637.40,-72.84
10658.94,-73.62
10680.47,-74.16
10702.00,-75.96
10723.54,-75.65
10745.07,-76.27
10766.60,-74.63
10788.13,-74.32
10809.67,-74.09
10831.20,-75.49
10852.73,-74.55
10874.27,-75.96
10895.80,-75.96
10917.33,-76.20
10938.87,-76.27
10960.40,-77.45
10981.93,-77.05
11003.47,-77.45
11025.00,-77.13
11046.53,-76.98
11068.07,-76.74
11089.60,-79.09
11111.13,-79.24
11132.67,-80.18
11154.20,-81.74
11175.73,-82.84
11197.27,-84.09
11218.80,-85.73
11240.33,-84.48
11261.87,-83.38
11283.40,-82.21
11304.93,-79.40
11326.46,-78.46
11348.00,-79.87
11369.53,-79.56
11391.06,-78.31
11412.60,-78.70
11434.13,-76.82
11455.66,-76.90
11477.20,-78.70
11498.73,-80.57
11520.26,-80.88
11541.80,-81.67
11563.33,-80.18
11584.86,-79.40
11606.40,-80.65
11627.93,-79.48
11649.46,-78.07
11671.00,-76.90
11692.53,-74.79
11714.06,-73.85
11735.60,-75.41
11757.13,-75.65
11778.66,-74.95
11800.20,-75.26
11821.73,-74.63
11843.26,-73.85
11864.79,-75.18
11886.33,-75.96
11907.86,-76.35
11929.39,-76.74
11950.93,-77.45
11972.46,-76.20
11993.99,-77.29
12015.53,-77.37
12037.06,-76.90
12058.59,-75.80
12080.13,-74.95
12101.66,-73.62
12123.19,-74.48
12144.73,-75.02
12166.26,-75.18
12187.79,-74.24
12209.33,-74.87
12230.86,-73.77
12252.39,-74.40
12273.93,-75.02
12295.46,-75.57
12316.99,-74.87
12338.53,-75.10
12360.06,-74.16
12381.59,-74.55
12403.13,-75.02
12424.66,-75.88
12446.19,-75.65
12467.72,-76.04
12489.26,-75.65
12510.79,-75.26
12532.32,-75.80
12553.86,-76.66
12575.39,-76.43
12596.92,-76.66
12618.46,-76.98
12639.99,-76.74
12661.52,-76.35
12683.06,-76.59
12704.59,-76.12
12726.12,-76.12
12747.66,-75.96
12769.19,-75.34
12790.72,-75.57
12812.26,-75.88
12833.79,-75.88
12855.32,-76.27
12876.86,-78.38
12898.39,-77.52
12919.92,-78.31
12941.46,-79.48
12962.99,-80.26
12984.52,-80.02
13006.05,-81.20
13027.59,-80.26
13049.12,-79.79
13070.65,-79.71
13092.19,-79.24
13113.72,-78.70
13135.25,-79.71
13156.79,-79.32
13178.32,-79.16
13199.85,-79.40
13221.39,-79.16
13242.92,-79.24
13264.45,-81.27
13285.99,-82.13
13307.52,-82.60
13329.05,-84.17
13350.59,-84.63
13372.12,-84.24
13393.65,-84.79
13415.19,-84.40
13436.72,-83.70
13458.25,-82.84
13479.79,-81.74
13501.32,-81.51
13522.85,-82.99
13544.38,-83.23
13565.92,-83.23
13587.45,-83.07
13608.98,-81.59
13630.52,-80.81
13652.05,-81.43
13673.58,-81.90
13695.12,-81.04
13716.65,-81.12
13738.18,-81.35
13759.72,-81.67
13781.25,-82.29
13802.78,-81.67
13824.32,-80.42
13845.85,-79.71
13867.38,-79.87
13888.92,-80.57
13910.45,-82.45
13931.98,-82.29
13953.52,-82.45
13975.05,-80.81
13996.58,-79.71
14018.12,-79.16
14039.65,-79.09
14061.18,-78.31
14082.71,-77.91
14104.25,-76.51
14125.78,-75.88
14147.31,-75.88
14168.85,-76.98
14190.38,-76.82
14211.91,-78.23
14233.45,-77.29
14254.98,-77.05
14276.51,-77.84
14298.05,-78.93
14319.58,-78.85
14341.11,-80.26
14362.65,-79.09
14384.18,-78.15
14405.71,-77.76
14427.25,-79.09
14448.78,-77.52
14470.31,-77.84
14491.85,-76.12
14513.38,-75.26
14534.91,-75.34
14556.45,-76.74
14577.98,-75.65
14599.51,-77.21
14621.04,-76.51
14642.58,-75.88
14664.11,-76.66
14685.64,-78.77
14707.18,-77.76
14728.71,-78.70
14750.24,-77.99
14771.78,-77.13
14793.31,-77.05
14814.84,-78.77
14836.38,-78.23
14857.91,-79.09
14879.44,-78.31
14900.98,-77.52
14922.51,-78.07
14944.04,-79.56
14965.58,-78.62
14987.11,-79.09
15008.64,-79.40
15030.18,-78.31
15051.71,-78.38
15073.24,-79.87
15094.78,-79.56
15116.31,-79.48
15137.84,-79.16
15159.38,-77.91
15180.91,-77.91
15202.44,-78.77
15223.97,-78.62
15245.51,-79.01
15267.04,-80.26
15288.57,-79.79
15310.11,-80.49
15331.64,-83.15
15353.17,-83.62
15374.71,-84.48
15396.24,-84.48
15417.77,-82.99
15439.31,-82.29
15460.84,-82.76
15482.37,-82.21
15503.91,-82.06
15525.44,-81.27
15546.97,-80.49
15568.51,-80.02
15590.04,-81.20
15611.57,-80.65
15633.11,-81.27
15654.64,-81.98
15676.17,-83.31
15697.71,-82.99
15719.24,-85.26
15740.77,-87.45
15762.30,-89.25
15783.84,-87.53
15805.37,-86.43
15826.90,-86.04
15848.44,-86.20
15869.97,-84.17
15891.50,-84.40
15913.04,-83.38
15934.57,-83.46
15956.10,-83.15
15977.64,-84.40
15999.17,-84.24
16020.70,-85.34
16042.24,-84.48
16063.77,-85.03
16085.30,-85.57
16106.84,-86.59
16128.37,-86.04
16149.90,-86.90
16171.44,-85.96
16192.97,-85.49
16214.50,-85.65
16236.04,-86.28
16257.57,-84.63
16279.10,-84.95
16300.63,-84.40
16322.17,-84.24
16343.70,-84.56
16365.23,-84.71
16386.77,-83.85
16408.30,-84.40
16429.83,-83.46
16451.37,-82.60
16472.90,-83.31
16494.43,-82.92
16515.97,-81.27
16537.50,-81.74
16559.03,-81.98
16580.57,-81.35
16602.10,-83.15
16623.63,-84.09
16645.17,-83.23
16666.70,-84.24
16688.23,-84.48
16709.77,-84.01
16731.30,-85.10
16752.83,-84.87
16774.37,-83.15
16795.90,-83.23
16817.43,-83.07
16838.96,-81.35
16860.50,-82.37
16882.03,-82.53
16903.56,-80.65
16925.10,-80.73
16946.63,-80.73
16968.16,-79.87
16989.70,-81.35
17011.23,-83.15
17032.76,-82.92
17054.30,-83.62
17075.83,-84.24
17097.36,-84.40
17118.90,-85.57
17140.43,-86.20
17161.96,-84.24
17183.50,-83.70
17205.03,-83.38
17226.56,-82.21
17248.10,-82.76
17269.63,-84.01
17291.16,-82.99
17312.70,-82.60
17334.23,-82.76
17355.76,-83.38
17377.29,-83.62
17398.83,-85.49
17420.36,-84.95
17441.89,-84.71
17463.43,-85.49
17484.96,-86.28
17506.49,-86.82
17528.03,-87.76
17549.56,-86.51
17571.09,-84.87
17592.63,-84.79
17614.16,-85.42
17635.69,-85.10
17657.23,-86.43
17678.76,-86.04
17700.29,-84.63
17721.83,-85.34
17743.36,-86.12
17764.89,-87.84
17786.43,-88.07
17807.96,-87.68
17829.49,-86.90
17851.03,-87.29
17872.56,-87.29
17894.09,-87.84
17915.63,-87.68
17937.16,-87.06
17958.69,-85.73
17980.22,-86.20
18001.76,-86.51
18023.29,-87.76
18044.82,-87.76
18066.36,-88.54
18087.89,-87.29
18109.42,-87.21
18130.96,-87.06
18152.49,-88.23
18174.02,-86.90
18195.56,-86.20
18217.09,-85.49
18238.62,-85.49
18260.16,-85.57
18281.69,-86.82
18303.22,-86.12
18324.76,-85.73
18346.29,-85.49
18367.82,-85.81
18389.36,-86.12
18410.89,-88.23
18432.42,-87.84
18453.96,-87.21
18475.49,-86.51
18497.02,-85.96
18518.55,-85.65
18540.09,-86.98
18561.62,-86.43
18583.15,-85.03
18604.69,-84.63
18626.22,-83.93
18647.75,-83.46
18669.29,-85.96
18690.82,-86.35
18712.35,-85.18
18733.89,-85.10
18755.42,-85.03
18776.95,-84.87
18798.49,-86.98
18820.02,-86.59
18841.55,-85.57
18863.09,-84.56
18884.62,-83.85
18906.15,-83.23
18927.69,-84.24
18949.22,-84.09
18970.75,-83.78
18992.29,-84.40
19013.82,-84.01
19035.35,-83.78
19056.88,-85.73
19078.42,-86.04
19099.95,-85.73
19121.48,-85.73
19143.02,-86.35
19164.55,-86.74
19186.08,-88.23
19207.62,-87.14
19229.15,-85.96
19250.68,-84.95
19272.22,-84.56
19293.75,-84.09
19315.28,-85.10
19336.82,-84.40
19358.35,-83.46
19379.88,-83.70
19401.42,-84.63
19422.95,-84.56
19444.48,-85.89
19466.02,-86.43
19487.55,-87.45
19509.08,-87.68
19530.62,-89.01
19552.15,-88.78
19573.68,-89.25
19595.21,-89.09
19616.75,-88.70
19638.28,-88.15
19659.81,-88.15
19681.35,-87.29
19702.88,-87.84
19724.41,-87.53
19745.95,-87.06
19767.48,-86.74
19789.01,-87.60
19810.55,-87.53
19832.08,-88.00
19853.61,-88.23
19875.15,-89.32
19896.68,-90.50
19918.21,-91.67
19939.75,-92.29
19961.28,-92.61
19982.81,-92.76
20004.35,-92.76
20025.88,-92.92
20047.41,-93.00
20068.95,-93.00
20090.48,-93.70
20112.01,-93.86
20133.54,-94.79
20155.08,-94.64
20176.61,-92.53
20198.14,-91.98
20219.68,-89.79
20241.21,-88.70
20262.74,-89.09
20284.28,-89.56
20305.81,-89.32
20327.34,-89.95
20348.88,-90.11
20370.41,-90.57
20391.94,-91.82
20413.48,-92.53
20435.01,-92.92
20456.54,-94.01
20478.08,-93.39
20499.61,-92.53
20521.14,-91.67
20542.68,-91.12
20564.21,-90.26
20585.74,-89.48
20607.28,-89.64
20628.81,-87.53
20650.34,-86.67
20671.88,-87.06
20693.41,-86.74
20714.94,-86.67
20736.47,-87.92
20758.01,-87.14
20779.54,-87.53
20801.07,-88.39
20822.61,-88.78
20844.14,-89.87
20865.67,-90.89
20887.21,-89.56
20908.74,-89.09
20930.27,-88.70
20951.81,-89.17
20973.34,-88.70
20994.87,-89.32
21016.41,-87.60
21037.94,-86.59
21059.47,-86.67
21081.01,-87.53
21102.54,-87.06
21124.07,-87.84
21145.61,-87.21
21167.14,-86.74
21188.67,-87.53
21210.21,-88.62
21231.74,-88.15
21253.27,-89.25
21274.80,-88.78
21296.34,-87.37
21317.87,-87.60
21339.40,-88.62
21360.94,-88.39
21382.47,-89.09
21404.00,-88.93
21425.54,-87.45
21447.07,-87.53
21468.60,-89.01
21490.14,-89.64
21511.67,-90.65
21533.20,-90.11
21554.74,-89.17
21576.27,-89.17
21597.80,-90.26
21619.34,-90.03
21640.87,-89.71
21662.40,-89.48
21683.94,-88.15
21705.47,-88.31
21727.00,-89.01
21748.54,-88.85
21770.07,-88.93
21791.60,-89.32
21813.13,-89.01
21834.67,-89.64
21856.20,-90.50
21877.73,-90.73
21899.27,-90.03
21920.80,-90.03
21942.33,-89.87
21963.87,-90.50
21985.40,-91.20
22006.93,-90.89
22028.47,-90.89
22050.00,-91.98
