Frequency (Hz),Power (dB),44100.0000,2048,0,2.0000,0,L+R
0.00,-73.62
21.53,-64.86
43.07,-26.57
64.60,-20.09
86.13,-25.64
107.67,-49.86
129.20,-42.98
150.73,-48.06
172.27,-71.51
193.80,-72.52
215.33,-73.15
236.87,-72.91
258.40,-72.91
279.93,-73.38
301.46,-70.65
323.00,-73.46
344.53,-74.32
366.06,-58.85
387.60,-50.02
409.13,-53.22
430.66,-72.05
452.20,-76.27
473.73,-78.23
495.26,-77.99
516.80,-77.91
538.33,-77.45
559.86,-61.27
581.40,-51.35
602.93,-53.61
624.46,-65.57
646.00,-55.96
667.53,-57.36
689.06,-72.60
710.60,-78.54
732.13,-79.79
753.66,-74.87
775.20,-64.86
796.73,-65.80
818.26,-77.05
839.79,-80.88
861.33,-80.65
882.86,-72.68
904.39,-60.64
925.93,-60.57
947.46,-63.93
968.99,-51.81
990.53,-51.81
1012.06,-64.55
1033.59,-77.91
1055.13,-80.02
1076.66,-80.42
1098.19,-80.42
1119.73,-78.46
1141.26,-68.15
1162.79,-54.94
1184.33,-53.77
1205.86,-63.85
1227.39,-77.91
1248.93,-79.71
1270.46,-78.46
1291.99,-75.96
1313.53,-71.58
1335.06,-63.30
1356.59,-50.95
1378.13,-48.84
1399.66,-57.13
1421.19,-64.00
1442.72,-62.44
1464.26,-69.24
1485.79,-77.68
1507.32,-78.23
1528.86,-76.43
1550.39,-65.96
1571.92,-62.75
1593.46,-69.47
1614.99,-77.45
1636.52,-79.63
1658.06,-77.60
1679.59,-68.15
1701.12,-63.07
1722.66,-63.46
1744.19,-52.83
1765.72,-48.77
1787.26,-54.78
1808.79,-68.46
1830.32,-74.40
1851.86,-78.07
1873.39,-77.76
1894.92,-74.40
1916.46,-67.91
1937.99,-56.50
1959.52,-51.74
1981.05,-56.35
2002.59,-67.21
2024.12,-73.85
2045.65,-78.62
2067.19,-81.04
2088.72,-81.82
2110.25,-82.60
2131.79,-83.23
2153.32,-81.90
2174.85,-79.56
2196.39,-73.77
2217.92,-67.37
2239.45,-69.01
2260.99,-74.48
2282.52,-72.99
2304.05,-67.05
2325.59,-55.49
2347.12,-49.08
2368.65,-51.58
2390.19,-62.36
2411.72,-69.94
2433.25,-74.40
2454.79,-73.77
2476.32,-67.52
2497.85,-68.07
2519.38,-76.43
2540.92,-80.26
2562.45,-81.12
2583.98,-81.27
2605.52,-81.98
2627.05,-81.04
2648.58,-78.15
2670.12,-73.69
2691.65,-69.63
2713.18,-59.47
2734.72,-49.86
2756.25,-50.10
2777.78,-58.30
2799.32,-66.04
2820.85,-71.58
2842.38,-75.49
2863.92,-78.15
2885.45,-77.84
2906.98,-73.23
2928.52,-66.35
2950.05,-66.11
2971.58,-72.21
2993.12,-69.47
3014.65,-68.30
3036.18,-74.48
3057.71,-79.16
3079.25,-79.79
3100.78,-77.84
3122.31,-70.02
3143.85,-69.01
3165.38,-75.26
3186.91,-79.24
3208.45,-80.10
3229.98,-78.77
3251.51,-73.69
3273.05,-71.35
3294.58,-75.41
3316.11,-80.49
3337.65,-80.49
3359.18,-81.43
3380.71,-81.67
3402.25,-80.10
3423.78,-77.37
3445.31,-72.29
3466.85,-67.21
3488.38,-60.10
3509.91,-50.41
3531.45,-47.28
3552.98,-52.44
3574.51,-61.27
3596.04,-67.29
3617.58,-72.44
3639.11,-76.35
3660.64,-79.87
3682.18,-81.90
3703.71,-81.90
3725.24,-81.98
3746.78,-79.87
3768.31,-75.80
3789.84,-71.74
3811.38,-73.85
3832.91,-77.76
3854.44,-80.10
3875.98,-79.16
3897.51,-74.95
3919.04,-70.65
3940.58,-73.85
3962.11,-78.07
3983.64,-79.16
4005.18,-77.37
4026.71,-76.90
4048.24,-72.44
4069.78,-73.15
4091.31,-72.13
4112.84,-68.30
4134.38,-71.19
4155.91,-76.90
4177.44,-79.63
4198.97,-81.51
4220.51,-82.29
4242.04,-81.67
4263.57,-79.24
4285.11,-75.57
4306.64,-70.57
4328.17,-71.66
4349.71,-76.59
4371.24,-79.63
4392.77,-82.37
4414.31,-82.13
4435.84,-82.45
4457.37,-82.60
4478.91,-81.90
4500.44,-80.65
4521.97,-81.04
4543.51,-79.79
4565.04,-75.18
4586.57,-74.40
4608.11,-77.99
4629.64,-79.01
4651.17,-77.84
4672.71,-73.15
4694.24,-65.33
4715.77,-65.72
4737.30,-71.74
4758.84,-75.96
4780.37,-78.15
4801.90,-78.70
4823.44,-76.74
4844.97,-74.87
4866.50,-78.46
4888.04,-80.02
4909.57,-81.67
4931.10,-82.29
4952.64,-82.76
4974.17,-81.59
4995.70,-79.09
5017.24,-80.96
5038.77,-81.59
5060.30,-78.77
5081.84,-73.15
5103.37,-71.35
5124.90,-76.04
5146.44,-79.16
5167.97,-80.10
5189.50,-80.26
5211.04,-80.96
5232.57,-80.73
5254.10,-78.38
5275.63,-73.46
5297.17,-71.27
5318.70,-74.71
5340.23,-75.49
5361.77,-74.24
5383.30,-76.35
5404.83,-79.40
5426.37,-79.87
5447.90,-78.85
5469.43,-76.04
5490.97,-73.93
5512.50,-77.76
5534.03,-79.48
5555.57,-80.34
5577.10,-80.02
5598.63,-79.09
5620.17,-76.90
5641.70,-78.31
5663.23,-79.32
5684.77,-80.88
5706.30,-81.51
5727.83,-82.53
5749.37,-81.35
5770.90,-80.49
5792.43,-80.26
5813.96,-79.32
5835.50,-76.51
5857.03,-70.88
5878.56,-66.74
5900.10,-69.79
5921.63,-74.48
5943.16,-77.52
5964.70,-80.10
5986.23,-76.98
6007.76,-76.27
6029.30,-80.73
6050.83,-81.12
6072.36,-81.27
6093.90,-81.20
6115.43,-78.77
6136.96,-76.35
6158.50,-76.12
6180.03,-79.16
6201.56,-80.10
6223.10,-79.56
6244.63,-78.31
6266.16,-75.34
6287.70,-77.13
6309.23,-79.48
6330.76,-80.18
6352.29,-80.49
6373.83,-80.10
6395.36,-77.21
6416.89,-76.27
6438.43,-76.04
6459.96,-72.37
6481.49,-73.54
6503.03,-77.68
6524.56,-79.09
6546.09,-79.95
6567.63,-80.73
6589.16,-80.34
6610.69,-79.56
6632.23,-77.91
6653.76,-74.71
6675.29,-74.40
6696.83,-76.82
6718.36,-78.70
6739.89,-80.42
6761.43,-80.88
6782.96,-81.35
6804.49,-80.73
6826.03,-80.65
6847.56,-80.96
6869.09,-81.04
6890.63,-80.10
6912.16,-78.54
6933.69,-76.12
6955.22,-77.99
6976.76,-78.15
6998.29,-75.88
7019.82,-76.20
7041.36,-70.57
7062.89,-69.40
7084.42,-74.95
7105.96,-77.21
7127.49,-78.77
7149.02,-79.40
7170.56,-77.91
7192.09,-76.74
7213.62,-78.93
7235.16,-79.56
7256.69,-81.51
7278.22,-81.43
7299.76,-81.74
7321.29,-81.59
7342.82,-80.34
7364.36,-80.57
7385.89,-81.04
7407.42,-80.65
7428.96,-77.68
7450.49,-74.55
7472.02,-76.35
7493.55,-77.76
7515.09,-79.48
7536.62,-80.96
7558.15,-80.02
7579.69,-80.10
7601.22,-79.16
7622.75,-75.80
7644.29,-73.38
7665.82,-75.80
7687.35,-77.52
7708.89,-77.29
7730.42,-77.99
7751.95,-79.09
7773.49,-80.88
7795.02,-79.79
7816.55,-79.56
7838.09,-76.74
7859.62,-77.52
7881.15,-78.85
7902.69,-80.34
7924.22,-80.18
7945.75,-79.40
7967.29,-76.27
7988.82,-68.77
8010.35,-69.16
8031.88,-79.71
8053.42,-81.20
8074.95,-80.57
8096.48,-81.12
8118.02,-80.88
8139.55,-80.18
8161.08,-79.48
8182.62,-77.91
8204.15,-75.73
8225.68,-70.18
8247.22,-71.51
8268.75,-76.35
8290.28,-77.45
8311.82,-79.09
8333.35,-79.40
8354.88,-80.57
8376.42,-81.74
8397.95,-81.98
8419.48,-80.96
8441.02,-80.18
8462.55,-80.73
8484.08,-78.15
8505.62,-76.51
8527.15,-77.91
8548.68,-79.32
8570.21,-79.09
8591.75,-78.85
8613.28,-77.13
8634.81,-76.59
8656.35,-78.85
8677.88,-80.81
8699.41,-80.88
8720.95,-80.34
8742.48,-78.70
8764.01,-77.05
8785.55,-76.98
8807.08,-74.71
8828.61,-74.63
8850.15,-77.29
8871.68,-78.23
8893.21,-79.48
8914.75,-80.18
8936.28,-79.56
8957.81,-79.24
8979.35,-77.45
9000.88,-73.62
9022.41,-74.71
9043.95,-78.07
9065.48,-79.16
9087.01,-79.09
9108.54,-79.48
9130.08,-79.87
9151.61,-80.65
9173.14,-81.04
9194.68,-80.57
9216.21,-80.02
9237.74,-79.79
9259.28,-79.01
9280.81,-77.37
9302.34,-78.31
9323.88,-79.63
9345.41,-79.56
9366.94,-77.68
9388.48,-72.76
9410.01,-70.80
9431.54,-75.02
9453.08,-77.68
9474.61,-77.84
9496.14,-78.15
9517.68,-78.62
9539.21,-78.23
9560.74,-78.38
9582.28,-78.62
9603.81,-79.40
9625.34,-80.02
9646.88,-81.35
9668.41,-80.96
9689.94,-79.95
9711.47,-79.63
9733.01,-79.09
9754.54,-79.63
9776.07,-78.23
9797.61,-76.43
9819.14,-77.21
9840.67,-78.85
9862.21,-78.70
9883.74,-79.40
9905.27,-80.34
9926.81,-80.18
9948.34,-79.40
9969.87,-76.82
9991.41,-72.05
10012.94,-73.69
10034.47,-77.76
10056.01,-76.98
10077.54,-76.04
10099.07,-78.23
10120.61,-78.77
10142.14,-78.70
10163.67,-78.54
10185.21,-76.90
10206.74,-77.76
10228.27,-79.24
10249.80,-78.38
10271.34,-78.85
10292.87,-79.09
10314.40,-78.62
10335.94,-77.13
10357.47,-78.07
10379.00,-79.40
10400.54,-79.16
10422.07,-78.70
10443.60,-79.16
10465.14,-79.71
10486.67,-77.05
10508.20,-75.80
10529.74,-78.07
10551.27,-76.43
10572.80,-72.37
10594.34,-72.13
10615.87,-75.88
10637.40,-78.23
10658.94,-78.70
10680.47,-79.01
10702.00,-78.77
10723.54,-79.40
10745.07,-78.77
10766.60,-78.54
10788.13,-78.85
10809.67,-79.95
10831.20,-78.15
10852.73,-76.90
10874.27,-77.60
10895.80,-78.93
10917.33,-79.32
10938.87,-79.32
10960.40,-78.07
10981.93,-76.35
11003.47,-75.26
11025.00,-78.85
11046.53,-80.26
11068.07,-77.99
11089.60,-78.15
11111.13,-77.29
11132.67,-77.29
11154.20,-76.66
11175.73,-75.57
11197.27,-78.15
11218.80,-78.23
11240.33,-78.07
11261.87,-79.40
11283.40,-79.32
11304.93,-79.32
11326.46,-78.93
11348.00,-76.82
11369.53,-75.80
11391.06,-75.88
11412.60,-77.91
11434.13,-80.02
11455.66,-79.79
11477.20,-79.56
11498.73,-79.56
11520.26,-79.87
11541.80,-79.24
11563.33,-78.77
11584.86,-79.40
11606.40,-79.71
11627.93,-79.01
11649.46,-78.62
11671.00,-78.70
11692.53,-79.16
11714.06,-77.45
11735.60,-75.18
11757.13,-72.52
11778.66,-74.87
11800.20,-78.07
11821.73,-78.15
11843.26,-78.62
11864.79,-78.70
11886.33,-78.23
11907.86,-77.68
11929.39,-79.09
11950.93,-78.38
11972.46,-78.23
11993.99,-74.09
12015.53,-75.73
12037.06,-79.09
12058.59,-78.38
12080.13,-78.23
12101.66,-78.38
12123.19,-77.99
12144.73,-76.98
12166.26,-76.66
12187.79,-79.09
12209.33,-78.38
12230.86,-79.16
12252.39,-79.32
12273.93,-78.15
12295.46,-78.77
12316.99,-79.24
12338.53,-76.12
12360.06,-75.96
12381.59,-78.23
12403.13,-77.84
12424.66,-77.21
12446.19,-77.05
12467.72,-76.98
12489.26,-77.52
12510.79,-78.77
12532.32,-77.68
12553.86,-77.21
12575.39,-78.85
12596.92,-79.48
12618.46,-78.15
12639.99,-78.54
12661.52,-79.01
12683.06,-78.07
12704.59,-78.23
12726.12,-79.24
12747.66,-79.63
12769.19,-79.09
12790.72,-79.48
12812.26,-79.63
12833.79,-78.93
12855.32,-77.91
12876.86,-77.91
12898.39,-76.66
12919.92,-74.16
12941.46,-72.76
12962.99,-75.88
12984.52,-76.59
13006.05,-76.59
13027.59,-78.62
13049.12,-78.93
13070.65,-78.77
13092.19,-78.70
13113.72,-78.93
13135.25,-78.23
13156.79,-78.07
13178.32,-78.54
13199.85,-78.23
13221.39,-78.23
13242.92,-78.70
13264.45,-77.91
13285.99,-77.60
13307.52,-77.21
13329.05,-76.35
13350.59,-77.52
13372.12,-78.38
13393.65,-79.09
13415.19,-79.56
13436.72,-78.85
13458.25,-77.29
13479.79,-77.13
13501.32,-76.51
13522.85,-74.95
13544.38,-76.35
13565.92,-77.99
13587.45,-78.23
13608.98,-78.70
13630.52,-79.01
13652.05,-78.62
13673.58,-77.84
13695.12,-77.21
13716.65,-76.82
13738.18,-76.74
13759.72,-78.15
13781.25,-78.93
13802.78,-79.48
13824.32,-79.01
13845.85,-78.07
13867.38,-79.01
13888.92,-78.31
13910.45,-77.52
13931.98,-77.29
13953.52,-77.99
13975.05,-76.82
13996.58,-76.04
14018.12,-77.37
14039.65,-77.13
14061.18,-76.82
14082.71,-75.34
14104.25,-72.84
14125.78,-74.16
14147.31,-77.29
14168.85,-77.84
14190.38,-77.29
14211.91,-79.16
14233.45,-78.77
14254.98,-78.62
14276.51,-79.71
14298.05,-79.01
14319.58,-79.24
14341.11,-79.56
14362.65,-79.24
14384.18,-79.79
14405.71,-79.16
14427.25,-78.70
14448.78,-78.38
14470.31,-77.76
14491.85,-77.21
14513.38,-75.96
14534.91,-76.51
14556.45,-77.29
14577.98,-76.98
14599.51,-76.98
14621.04,-77.99
14642.58,-77.60
14664.11,-77.84
14685.64,-76.20
14707.18,-75.88
14728.71,-77.45
14750.24,-77.91
14771.78,-77.37
14793.31,-77.05
14814.84,-77.68
14836.38,-79.01
14857.91,-78.54
14879.44,-77.68
14900.98,-77.21
14922.51,-78.38
14944.04,-77.91
14965.58,-76.59
14987.11,-76.90
15008.64,-77.37
15030.18,-77.52
15051.71,-77.91
15073.24,-78.46
15094.78,-77.68
15116.31,-78.15
15137.84,-78.31
15159.38,-77.37
15180.91,-77.29
15202.44,-77.68
15223.97,-76.74
15245.51,-76.59
15267.04,-75.34
15288.57,-73.62
15310.11,-75.57
15331.64,-77.21
15353.17,-76.66
15374.71,-77.29
15396.24,-77.37
15417.77,-76.82
15439.31,-78.38
15460.84,-78.93
15482.37,-78.38
15503.91,-77.05
15525.44,-77.76
15546.97,-77.60
15568.51,-77.29
15590.04,-77.29
15611.57,-77.29
15633.11,-78.62
15654.64,-77.45
15676.17,-76.74
15697.71,-77.84
15719.24,-78.46
15740.77,-77.45
15762.30,-76.20
15783.84,-77.13
15805.37,-78.46
15826.90,-77.52
15848.44,-77.37
15869.97,-76.98
15891.50,-76.27
15913.04,-77.45
15934.57,-77.52
15956.10,-77.29
15977.64,-76.04
15999.17,-73.62
16020.70,-76.51
16042.24,-77.37
16063.77,-76.90
16085.30,-76.43
16106.84,-78.07
16128.37,-77.84
16149.90,-78.46
16171.44,-79.01
16192.97,-78.54
16214.50,-77.60
16236.04,-77.60
16257.57,-76.66
16279.10,-77.21
16300.63,-78.07
16322.17,-76.51
16343.70,-75.80
16365.23,-76.90
16386.77,-76.43
16408.30,-76.90
16429.83,-77.05
16451.37,-74.40
16472.90,-74.40
16494.43,-76.35
16515.97,-77.21
16537.50,-77.91
16559.03,-78.07
16580.57,-77.60
16602.10,-76.74
16623.63,-77.45
16645.17,-77.60
16666.70,-78.15
16688.23,-77.60
16709.77,-77.37
16731.30,-78.23
16752.83,-78.31
16774.37,-77.99
16795.90,-77.21
16817.43,-77.13
16838.96,-77.76
16860.50,-76.82
16882.03,-77.13
16903.56,-77.52
16925.10,-77.60
16946.63,-77.91
16968.16,-77.21
16989.70,-76.27
17011.23,-76.12
17032.76,-76.59
17054.30,-75.88
17075.83,-76.43
17097.36,-77.13
17118.90,-76.59
17140.43,-76.51
17161.96,-77.52
17183.50,-77.91
17205.03,-77.76
17226.56,-77.29
17248.10,-76.43
17269.63,-77.52
17291.16,-78.38
17312.70,-77.29
17334.23,-77.45
17355.76,-77.45
17377.29,-77.60
17398.83,-76.98
17420.36,-77.68
17441.89,-77.21
17463.43,-77.91
17484.96,-78.15
17506.49,-77.13
17528.03,-78.15
17549.56,-77.45
17571.09,-76.20
17592.63,-76.04
17614.16,-75.73
17635.69,-74.24
17657.23,-75.02
17678.76,-76.51
17700.29,-77.84
17721.83,-78.38
17743.36,-79.01
17764.89,-78.15
17786.43,-77.13
17807.96,-77.76
17829.49,-77.68
17851.03,-76.66
17872.56,-77.52
17894.09,-78.23
17915.63,-76.98
17937.16,-77.37
17958.69,-77.68
17980.22,-76.74
18001.76,-76.12
18023.29,-77.29
18044.82,-77.60
18066.36,-77.99
18087.89,-77.84
18109.42,-77.37
18130.96,-76.90
18152.49,-77.13
18174.02,-77.45
18195.56,-76.90
18217.09,-75.96
18238.62,-75.96
18260.16,-77.52
18281.69,-76.90
18303.22,-76.98
18324.76,-77.84
18346.29,-77.68
18367.82,-77.05
18389.36,-76.98
18410.89,-77.05
18432.42,-75.88
18453.96,-76.27
18475.49,-77.29
18497.02,-76.59
18518.55,-76.59
18540.09,-76.27
18561.62,-76.51
18583.15,-76.98
18604.69,-76.98
18626.22,-77.37
18647.75,-76.43
18669.29,-76.82
18690.82,-77.05
18712.35,-76.90
18733.89,-77.76
18755.42,-77.91
18776.95,-77.99
18798.49,-75.73
18820.02,-74.87
18841.55,-75.96
18863.09,-77.05
18884.62,-77.99
18906.15,-77.60
18927.69,-76.59
18949.22,-76.82
18970.75,-76.82
18992.29,-75.80
19013.82,-76.74
19035.35,-78.15
19056.88,-78.46
19078.42,-78.38
19099.95,-78.07
19121.48,-78.15
19143.02,-77.76
19164.55,-77.37
19186.08,-78.46
19207.62,-77.91
19229.15,-76.74
19250.68,-77.45
19272.22,-76.90
19293.75,-77.52
19315.28,-78.23
19336.82,-78.77
19358.35,-78.31
19379.88,-78.15
19401.42,-77.52
19422.95,-76.59
19444.48,-76.43
19466.02,-76.66
19487.55,-77.13
19509.08,-77.52
19530.62,-77.68
19552.15,-77.91
19573.68,-78.15
19595.21,-77.84
19616.75,-78.85
19638.28,-77.76
19659.81,-78.54
19681.35,-78.38
19702.88,-78.31
19724.41,-78.15
19745.95,-78.23
19767.48,-77.84
19789.01,-77.76
19810.55,-79.24
19832.08,-80.10
19853.61,-79.09
19875.15,-78.31
19896.68,-78.31
19918.21,-78.77
19939.75,-78.85
19961.28,-77.91
19982.81,-76.90
20004.35,-76.66
20025.88,-77.68
20047.41,-78.15
20068.95,-78.38
20090.48,-79.95
20112.01,-80.96
20133.54,-80.18
20155.08,-79.87
20176.61,-79.95
20198.14,-79.71
20219.68,-79.40
20241.21,-79.87
20262.74,-80.02
20284.28,-79.48
20305.81,-79.63
20327.34,-79.63
20348.88,-79.56
20370.41,-79.09
20391.94,-79.09
20413.48,-79.79
20435.01,-80.10
20456.54,-80.02
20478.08,-80.02
20499.61,-80.96
20521.14,-81.04
20542.68,-80.57
20564.21,-80.02
20585.74,-79.71
20607.28,-80.88
20628.81,-81.12
20650.34,-80.88
20671.88,-82.29
20693.41,-81.27
20714.94,-81.67
20736.47,-82.53
20758.01,-81.20
20779.54,-79.95
20801.07,-80.65
20822.61,-81.43
20844.14,-82.37
20865.67,-82.53
20887.21,-82.21
20908.74,-81.90
20930.27,-81.98
20951.81,-82.76
20973.34,-82.92
20994.87,-82.21
21016.41,-82.53
21037.94,-83.38
21059.47,-82.13
21081.01,-83.70
21102.54,-83.70
21124.07,-83.62
21145.61,-80.49
21167.14,-78.54
21188.67,-80.73
21210.21,-83.78
21231.74,-84.87
21253.27,-85.03
21274.80,-85.34
21296.34,-84.79
21317.87,-84.79
21339.40,-85.10
21360.94,-85.18
21382.47,-85.73
21404.00,-86.20
21425.54,-87.45
21447.07,-87.37
21468.60,-87.68
21490.14,-88.15
21511.67,-87.37
21533.20,-86.20
21554.74,-84.95
21576.27,-85.18
21597.80,-86.74
21619.34,-87.45
21640.87,-88.15
21662.40,-88.39
21683.94,-89.25
21705.47,-89.40
21727.00,-86.74
21748.54,-83.93
21770.07,-84.48
21791.60,-87.68
21813.13,-90.11
21834.67,-89.17
21856.20,-89.56
21877.73,-92.45
21899.27,-91.75
21920.80,-91.20
21942.33,-88.31
21963.87,-89.09
21985.40,-90.57
22006.93,-92.37
22028.47,-95.18
22050.00,-95.26
