Frequency (Hz),Power (dB),44100.0000,2048,0,2.0000,0,L+R
0.00,-46.97
21.53,-52.75
43.07,-80.10
64.60,-78.46
86.13,-77.99
107.67,-58.22
129.20,-51.19
150.73,-55.88
172.27,-56.66
193.80,-49.47
215.33,-51.89
236.87,-48.14
258.40,-41.34
279.93,-44.08
301.46,-55.80
323.00,-57.99
344.53,-59.55
366.06,-45.72
387.60,-36.81
409.13,-39.39
430.66,-52.36
452.20,-53.30
473.73,-52.44
495.26,-41.58
516.80,-32.04
538.33,-32.83
559.86,-42.05
581.40,-37.36
602.93,-32.59
624.46,-35.09
646.00,-41.03
667.53,-38.84
689.06,-45.95
710.60,-57.13
732.13,-55.10
753.66,-46.58
775.20,-38.84
796.73,-38.45
818.26,-42.67
839.79,-52.44
861.33,-56.35
882.86,-59.00
904.39,-52.13
925.93,-48.53
947.46,-51.03
968.99,-48.30
990.53,-48.69
1012.06,-52.67
1033.59,-55.25
1055.13,-56.19
1076.66,-59.79
1098.19,-66.51
1119.73,-68.46
1141.26,-63.22
1162.79,-46.11
1184.33,-43.14
1205.86,-49.47
1227.39,-56.42
1248.93,-63.85
1270.46,-66.19
1291.99,-63.54
1313.53,-59.39
1335.06,-58.46
1356.59,-56.03
1378.13,-57.68
1399.66,-66.58
1421.19,-66.97
1442.72,-61.58
1464.26,-58.30
1485.79,-60.41
1507.32,-67.37
1528.86,-68.69
1550.39,-58.22
1571.92,-54.00
1593.46,-52.52
1614.99,-55.10
1636.52,-60.72
1658.06,-65.96
1679.59,-62.36
1701.12,-55.41
1722.66,-56.19
1744.19,-58.53
1765.72,-58.69
1787.26,-66.19
1808.79,-69.01
1830.32,-63.46
1851.86,-64.55
1873.39,-69.94
1894.92,-74.32
1916.46,-78.07
1937.99,-72.13
1959.52,-69.24
1981.05,-71.04
2002.59,-74.55
2024.12,-78.54
2045.65,-82.06
2067.19,-79.24
2088.72,-71.35
2110.25,-69.47
2131.79,-70.88
2153.32,-70.57
2174.85,-73.93
2196.39,-79.63
2217.92,-74.79
2239.45,-74.01
2260.99,-80.73
2282.52,-85.18
2304.05,-84.48
2325.59,-77.91
2347.12,-67.52
2368.65,-66.51
2390.19,-76.51
2411.72,-86.74
2433.25,-87.68
2454.79,-87.68
2476.32,-85.10
2497.85,-80.34
2519.38,-78.93
2540.92,-78.23
2562.45,-80.96
2583.98,-85.49
2605.52,-84.79
2627.05,-84.56
2648.58,-86.12
2670.12,-84.17
2691.65,-82.84
2713.18,-82.68
2734.72,-79.09
2756.25,-77.13
2777.78,-77.60
2799.32,-77.84
2820.85,-80.96
2842.38,-82.13
2863.92,-72.84
2885.45,-71.51
2906.98,-76.59
2928.52,-77.99
2950.05,-76.66
2971.58,-80.10
2993.12,-79.24
3014.65,-78.07
3036.18,-81.51
3057.71,-81.35
3079.25,-78.07
3100.78,-80.10
3122.31,-82.45
3143.85,-81.04
3165.38,-81.43
3186.91,-82.84
3208.45,-84.24
3229.98,-81.90
3251.51,-79.71
3273.05,-79.48
3294.58,-80.81
3316.11,-80.34
3337.65,-76.51
3359.18,-77.99
3380.71,-82.60
3402.25,-85.03
3423.78,-82.84
3445.31,-81.04
3466.85,-78.62
3488.38,-78.93
3509.91,-79.79
3531.45,-73.62
3552.98,-74.63
3574.51,-79.09
3596.04,-80.18
3617.58,-80.02
3639.11,-77.76
3660.64,-76.04
3682.18,-72.52
3703.71,-71.98
3725.24,-71.82
3746.78,-72.84
3768.31,-72.13
3789.84,-69.16
3811.38,-72.29
3832.91,-74.55
3854.44,-72.91
3875.98,-71.98
3897.51,-72.84
3919.04,-71.98
3940.58,-73.38
3962.11,-76.98
3983.64,-81.35
4005.18,-81.04
4026.71,-78.70
4048.24,-74.01
4069.78,-72.21
4091.31,-75.34
4112.84,-75.88
4134.38,-76.43
4155.91,-75.02
4177.44,-72.29
4198.97,-76.12
4220.51,-79.09
4242.04,-77.76
4263.57,-74.95
4285.11,-72.68
4306.64,-74.63
4328.17,-75.49
4349.71,-76.82
4371.24,-79.71
4392.77,-78.54
4414.31,-79.48
4435.84,-73.62
4457.37,-70.49
4478.91,-71.27
4500.44,-70.33
4521.97,-72.13
4543.51,-74.09
4565.04,-73.93
4586.57,-74.24
4608.11,-75.41
4629.64,-75.65
4651.17,-72.99
4672.71,-72.21
4694.24,-72.76
4715.77,-72.37
4737.30,-71.82
4758.84,-72.76
4780.37,-72.99
4801.90,-69.01
4823.44,-69.87
4844.97,-73.54
4866.50,-75.10
4888.04,-75.26
4909.57,-72.99
4931.10,-72.84
4952.64,-75.57
4974.17,-72.91
4995.70,-72.37
5017.24,-74.32
5038.77,-73.07
5060.30,-75.49
5081.84,-76.59
5103.37,-74.24
5124.90,-74.09
5146.44,-72.99
5167.97,-73.54
5189.50,-71.12
5211.04,-72.68
5232.57,-71.51
5254.10,-68.77
5275.63,-67.99
5297.17,-73.15
5318.70,-75.34
5340.23,-80.65
5361.77,-78.54
5383.30,-77.68
5404.83,-76.82
5426.37,-78.38
5447.90,-79.09
5469.43,-78.15
5490.97,-79.24
5512.50,-80.10
5534.03,-82.21
5555.57,-82.21
5577.10,-82.29
5598.63,-82.06
5620.17,-81.20
5641.70,-83.46
5663.23,-83.78
5684.77,-84.24
5706.30,-84.09
5727.83,-82.21
5749.37,-81.27
5770.90,-81.90
5792.43,-83.07
5813.96,-83.15
5835.50,-85.26
5857.03,-84.56
5878.56,-82.37
5900.10,-83.23
5921.63,-86.20
5943.16,-86.28
5964.70,-86.12
5986.23,-85.89
6007.76,-85.26
6029.30,-85.65
6050.83,-84.40
6072.36,-85.10
6093.90,-84.32
6115.43,-84.56
6136.96,-85.34
6158.50,-85.18
6180.03,-86.35
6201.56,-85.18
6223.10,-86.98
6244.63,-86.51
6266.16,-82.99
6287.70,-81.51
6309.23,-82.68
6330.76,-84.48
6352.29,-85.26
6373.83,-83.85
6395.36,-81.43
6416.89,-83.07
6438.43,-83.78
6459.96,-84.40
6481.49,-85.73
6503.03,-88.46
6524.56,-88.70
6546.09,-90.50
6567.63,-90.50
6589.16,-89.87
6610.69,-88.62
6632.23,-88.54
6653.76,-87.68
6675.29,-87.76
6696.83,-88.54
6718.36,-88.31
6739.89,-89.71
6761.43,-92.68
6782.96,-90.57
6804.49,-86.90
6826.03,-87.14
6847.56,-89.56
6869.09,-89.40
6890.63,-89.25
6912.16,-90.50
6933.69,-90.11
6955.22,-90.57
6976.76,-90.03
6998.29,-88.00
7019.82,-89.09
7041.36,-87.84
7062.89,-88.78
7084.42,-90.57
7105.96,-89.79
7127.49,-90.34
7149.02,-90.42
7170.56,-91.36
7192.09,-94.40
7213.62,-94.79
7235.16,-92.92
7256.69,-91.67
7278.22,-92.06
7299.76,-91.43
7321.29,-91.82
7342.82,-91.51
7364.36,-91.75
7385.89,-91.90
7407.42,-92.68
7428.96,-93.23
7450.49,-91.28
7472.02,-90.18
7493.55,-93.15
7515.09,-89.40
7536.62,-91.90
7558.15,-93.70
7579.69,-91.20
7601.22,-89.79
7622.75,-87.92
7644.29,-89.71
7665.82,-90.65
7687.35,-91.36
7708.89,-90.42
7730.42,-92.61
7751.95,-89.56
7773.49,-87.84
7795.02,-86.28
7816.55,-84.87
7838.09,-87.29
7859.62,-89.09
7881.15,-88.07
7902.69,-88.39
7924.22,-89.25
7945.75,-89.25
7967.29,-86.12
7988.82,-87.21
8010.35,-88.62
8031.88,-91.04
8053.42,-86.20
8074.95,-82.06
8096.48,-82.92
8118.02,-87.14
8139.55,-83.07
8161.08,-83.70
8182.62,-89.64
8204.15,-86.35
8225.68,-83.07
8247.22,-84.71
8268.75,-88.46
8290.28,-90.03
8311.82,-88.78
8333.35,-87.37
8354.88,-90.73
8376.42,-93.23
8397.95,-95.50
8419.48,-95.65
8441.02,-92.45
8462.55,-89.09
8484.08,-89.56
8505.62,-89.95
8527.15,-88.39
8548.68,-87.68
8570.21,-89.87
8591.75,-93.70
8613.28,-94.79
8634.81,-95.50
8656.35,-95.18
8677.88,-92.14
8699.41,-91.51
8720.95,-89.09
8742.48,-90.96
8764.01,-92.76
8785.55,-95.58
8807.08,-92.68
8828.61,-88.54
8850.15,-88.93
8871.68,-89.01
8893.21,-89.25
8914.75,-91.59
8936.28,-92.06
8957.81,-90.89
8979.35,-87.60
9000.88,-86.12
9022.41,-88.62
9043.95,-91.90
9065.48,-91.04
9087.01,-91.28
9108.54,-89.71
9130.08,-87.29
9151.61,-86.51
9173.14,-87.84
9194.68,-87.60
9216.21,-90.73
9237.74,-89.64
9259.28,-88.07
9280.81,-87.06
9302.34,-88.46
9323.88,-88.85
9345.41,-89.71
9366.94,-91.51
9388.48,-88.85
9410.01,-86.82
9431.54,-88.00
9453.08,-89.09
9474.61,-87.68
9496.14,-88.54
9517.68,-85.89
9539.21,-85.81
9560.74,-85.18
9582.28,-83.70
9603.81,-87.60
9625.34,-87.29
9646.88,-88.07
9668.41,-87.37
9689.94,-85.18
9711.47,-85.49
9733.01,-87.68
9754.54,-88.54
9776.07,-91.12
9797.61,-89.32
9819.14,-87.76
9840.67,-85.96
9862.21,-84.79
9883.74,-85.49
9905.27,-85.73
9926.81,-85.26
9948.34,-89.25
9969.87,-91.28
9991.41,-91.12
10012.94,-89.09
10034.47,-86.28
10056.01,-88.39
10077.54,-87.29
10099.07,-86.98
10120.61,-88.00
10142.14,-89.79
10163.67,-88.93
10185.21,-88.70
10206.74,-91.36
10228.27,-90.96
10249.80,-90.73
10271.34,-88.54
10292.87,-88.93
10314.40,-89.32
10335.94,-88.62
10357.47,-87.92
10379.00,-89.71
10400.54,-89.48
10422.07,-92.06
10443.60,-91.98
10465.14,-91.82
10486.67,-93.07
10508.20,-92.06
10529.74,-90.73
10551.27,-91.51
10572.80,-89.79
10594.34,-89.87
10615.87,-88.93
10637.40,-88.39
10658.94,-89.56
10680.47,-89.87
10702.00,-89.40
10723.54,-88.62
10745.07,-88.00
10766.60,-89.01
10788.13,-89.17
10809.67,-88.78
10831.20,-92.45
10852.73,-93.78
10874.27,-89.40
10895.80,-88.62
10917.33,-88.23
10938.87,-87.53
10960.40,-90.81
10981.93,-91.51
11003.47,-89.71
11025.00,-87.76
11046.53,-88.15
11068.07,-86.35
11089.60,-88.85
11111.13,-90.73
11132.67,-88.70
11154.20,-89.17
11175.73,-88.15
11197.27,-89.25
11218.80,-96.51
11240.33,-96.20
11261.87,-93.54
11283.40,-92.68
11304.93,-92.14
11326.46,-92.68
11348.00,-92.76
11369.53,-91.59
11391.06,-93.15
11412.60,-94.01
11434.13,-93.00
11455.66,-94.01
11477.20,-94.40
11498.73,-92.06
11520.26,-90.81
11541.80,-92.76
11563.33,-92.45
11584.86,-91.90
11606.40,-93.07
11627.93,-93.23
11649.46,-93.07
11671.00,-93.93
11692.53,-94.25
11714.06,-92.92
11735.60,-93.39
11757.13,-93.47
11778.66,-90.89
11800.20,-93.39
11821.73,-93.31
11843.26,-92.45
11864.79,-91.75
11886.33,-92.37
11907.86,-91.43
11929.39,-91.12
11950.93,-87.68
11972.46,-88.00
11993.99,-91.98
12015.53,-94.25
12037.06,-93.78
12058.59,-96.51
12080.13,-101.44
12101.66,-99.01
12123.19,-96.83
12144.73,-93.70
12166.26,-94.09
12187.79,-94.64
12209.33,-92.84
12230.86,-93.31
12252.39,-94.95
12273.93,-94.40
12295.46,-89.48
12316.99,-88.78
12338.53,-90.81
12360.06,-91.28
12381.59,-92.53
12403.13,-94.32
12424.66,-93.54
12446.19,-95.81
12467.72,-93.47
12489.26,-90.81
12510.79,-91.36
12532.32,-91.67
12553.86,-91.90
12575.39,-92.92
12596.92,-92.84
12618.46,-94.32
12639.99,-92.61
12661.52,-91.82
12683.06,-90.96
12704.59,-91.90
12726.12,-91.04
12747.66,-90.73
12769.19,-93.23
12790.72,-94.17
12812.26,-90.42
12833.79,-90.96
12855.32,-90.73
12876.86,-90.26
12898.39,-89.87
12919.92,-88.00
12941.46,-88.78
12962.99,-89.64
12984.52,-88.23
13006.05,-88.39
13027.59,-89.95
13049.12,-91.51
13070.65,-93.07
13092.19,-91.04
13113.72,-88.62
13135.25,-86.90
13156.79,-88.70
13178.32,-88.39
13199.85,-88.15
13221.39,-89.01
13242.92,-90.65
13264.45,-94.01
13285.99,-90.50
13307.52,-89.95
13329.05,-86.59
13350.59,-86.59
13372.12,-85.81
13393.65,-84.87
13415.19,-84.40
13436.72,-86.12
13458.25,-86.28
13479.79,-83.07
13501.32,-79.87
13522.85,-82.06
13544.38,-83.62
13565.92,-86.51
13587.45,-86.51
13608.98,-88.31
13630.52,-89.01
13652.05,-89.64
13673.58,-88.85
13695.12,-87.92
13716.65,-87.45
13738.18,-87.84
13759.72,-87.68
13781.25,-89.48
13802.78,-91.43
13824.32,-90.89
13845.85,-89.01
13867.38,-86.35
13888.92,-85.10
13910.45,-84.48
13931.98,-83.78
13953.52,-83.85
13975.05,-81.59
13996.58,-79.16
14018.12,-81.12
14039.65,-83.07
14061.18,-84.17
14082.71,-83.54
14104.25,-83.23
14125.78,-82.21
14147.31,-84.09
14168.85,-86.43
14190.38,-88.46
14211.91,-86.82
14233.45,-86.98
14254.98,-88.93
14276.51,-88.23
14298.05,-88.54
14319.58,-88.23
14341.11,-91.12
14362.65,-89.32
14384.18,-89.64
14405.71,-89.40
14427.25,-89.87
14448.78,-87.37
14470.31,-85.03
14491.85,-82.21
14513.38,-81.90
14534.91,-83.93
14556.45,-86.43
14577.98,-86.04
14599.51,-85.42
14621.04,-84.32
14642.58,-82.53
14664.11,-81.98
14685.64,-80.88
14707.18,-80.88
14728.71,-81.67
14750.24,-84.79
14771.78,-86.51
14793.31,-87.92
14814.84,-89.79
14836.38,-92.29
14857.91,-93.47
14879.44,-90.42
14900.98,-90.57
14922.51,-90.34
14944.04,-92.29
14965.58,-93.39
14987.11,-93.70
15008.64,-93.86
15030.18,-93.39
15051.71,-91.59
15073.24,-90.11
15094.78,-89.71
15116.31,-88.70
15137.84,-88.62
15159.38,-89.32
15180.91,-89.48
15202.44,-91.67
15223.97,-92.68
15245.51,-91.28
15267.04,-89.25
15288.57,-88.23
15310.11,-88.93
15331.64,-90.65
15353.17,-91.82
15374.71,-92.37
15396.24,-90.73
15417.77,-91.82
15439.31,-92.84
15460.84,-92.21
15482.37,-92.76
15503.91,-93.07
15525.44,-92.84
15546.97,-94.32
15568.51,-91.36
15590.04,-91.51
15611.57,-94.40
15633.11,-95.97
15654.64,-97.14
15676.17,-94.32
15697.71,-91.82
15719.24,-91.67
15740.77,-95.11
15762.30,-95.34
15783.84,-94.87
15805.37,-90.96
15826.90,-89.01
15848.44,-88.00
15869.97,-89.25
15891.50,-90.65
15913.04,-90.26
15934.57,-90.18
15956.10,-91.75
15977.64,-93.39
15999.17,-94.09
16020.70,-93.39
16042.24,-91.36
16063.77,-90.57
16085.30,-90.34
16106.84,-89.25
16128.37,-90.18
16149.90,-92.92
16171.44,-93.15
16192.97,-92.06
16214.50,-92.37
16236.04,-90.26
16257.57,-88.07
16279.10,-89.17
16300.63,-89.79
16322.17,-87.68
16343.70,-84.63
16365.23,-83.38
16386.77,-82.60
16408.30,-84.32
16429.83,-87.37
16451.37,-88.23
16472.90,-87.37
16494.43,-84.56
16515.97,-84.48
16537.50,-85.42
16559.03,-90.50
16580.57,-92.45
16602.10,-90.34
16623.63,-88.31
16645.17,-86.04
16666.70,-86.82
16688.23,-88.00
16709.77,-87.06
16731.30,-88.31
16752.83,-89.01
16774.37,-89.32
16795.90,-89.64
16817.43,-90.11
16838.96,-89.01
16860.50,-88.70
16882.03,-89.01
16903.56,-89.87
16925.10,-90.34
16946.63,-91.04
16968.16,-91.36
16989.70,-88.39
17011.23,-87.14
17032.76,-88.00
17054.30,-87.45
17075.83,-91.82
17097.36,-89.48
17118.90,-88.39
17140.43,-89.40
17161.96,-90.65
17183.50,-92.21
17205.03,-92.61
17226.56,-91.43
17248.10,-88.85
17269.63,-90.26
17291.16,-91.12
17312.70,-91.90
17334.23,-93.62
17355.76,-95.73
17377.29,-93.62
17398.83,-92.45
17420.36,-93.15
17441.89,-92.68
17463.43,-91.59
17484.96,-91.36
17506.49,-90.81
17528.03,-89.56
17549.56,-88.39
17571.09,-90.26
17592.63,-91.82
17614.16,-93.78
17635.69,-90.73
17657.23,-89.32
17678.76,-87.92
17700.29,-89.01
17721.83,-91.43
17743.36,-92.76
17764.89,-92.45
17786.43,-91.28
17807.96,-90.18
17829.49,-90.11
17851.03,-89.32
17872.56,-91.28
17894.09,-91.82
17915.63,-90.65
17937.16,-91.12
17958.69,-90.42
17980.22,-89.79
18001.76,-89.95
18023.29,-89.79
18044.82,-88.54
18066.36,-91.28
18087.89,-94.17
18109.42,-92.84
18130.96,-91.98
18152.49,-93.00
18174.02,-89.17
18195.56,-86.59
18217.09,-87.45
18238.62,-88.93
18260.16,-90.18
18281.69,-90.96
18303.22,-90.57
18324.76,-89.95
18346.29,-91.12
18367.82,-91.36
18389.36,-90.11
18410.89,-88.78
18432.42,-90.11
18453.96,-88.78
18475.49,-88.70
18497.02,-91.20
18518.55,-94.01
18540.09,-94.40
18561.62,-97.06
18583.15,-92.21
18604.69,-92.14
18626.22,-91.90
18647.75,-91.90
18669.29,-92.53
18690.82,-91.98
18712.35,-90.18
18733.89,-89.56
18755.42,-89.95
18776.95,-90.26
18798.49,-91.12
18820.02,-91.51
18841.55,-92.68
18863.09,-90.81
18884.62,-92.84
18906.15,-92.84
18927.69,-94.72
18949.22,-93.07
18970.75,-92.37
18992.29,-93.54
19013.82,-94.64
19035.35,-95.97
19056.88,-96.12
19078.42,-93.93
19099.95,-93.78
19121.48,-94.40
19143.02,-94.25
19164.55,-93.15
19186.08,-93.78
19207.62,-93.70
19229.15,-92.53
19250.68,-92.92
19272.22,-93.07
19293.75,-93.86
19315.28,-94.17
19336.82,-94.40
19358.35,-92.61
19379.88,-91.90
19401.42,-88.15
19422.95,-89.25
19444.48,-93.47
19466.02,-93.78
19487.55,-97.14
19509.08,-98.23
19530.62,-95.73
19552.15,-94.79
19573.68,-95.58
19595.21,-96.75
19616.75,-95.50
19638.28,-94.72
19659.81,-94.64
19681.35,-95.97
19702.88,-99.72
19724.41,-96.12
19745.95,-93.23
19767.48,-96.20
19789.01,-96.36
19810.55,-94.32
19832.08,-95.11
19853.61,-94.09
19875.15,-92.14
19896.68,-91.04
19918.21,-89.25
19939.75,-88.00
19961.28,-90.96
19982.81,-94.40
20004.35,-94.72
20025.88,-92.21
20047.41,-92.14
20068.95,-92.84
20090.48,-95.11
20112.01,-98.62
20133.54,-97.61
20155.08,-95.81
20176.61,-98.08
20198.14,-98.31
20219.68,-95.50
20241.21,-96.51
20262.74,-97.29
20284.28,-97.37
20305.81,-99.64
20327.34,-100.58
20348.88,-99.25
20370.41,-97.06
20391.94,-94.79
20413.48,-95.18
20435.01,-96.12
20456.54,-97.22
20478.08,-98.39
20499.61,-98.47
20521.14,-97.14
20542.68,-96.28
20564.21,-95.42
20585.74,-94.25
20607.28,-94.25
20628.81,-94.48
20650.34,-94.72
20671.88,-96.75
20693.41,-97.29
20714.94,-97.45
20736.47,-99.48
20758.01,-100.50
20779.54,-98.00
20801.07,-96.90
20822.61,-97.29
20844.14,-98.70
20865.67,-98.86
20887.21,-99.79
20908.74,-99.79
20930.27,-97.37
20951.81,-96.98
20973.34,-97.68
20994.87,-97.76
21016.41,-97.68
21037.94,-99.17
21059.47,-98.54
21081.01,-96.59
21102.54,-97.06
21124.07,-97.29
21145.61,-99.64
21167.14,-100.34
21188.67,-99.09
21210.21,-99.25
21231.74,-98.15
21253.27,-98.94
21274.80,-101.36
21296.34,-100.81
21317.87,-99.40
21339.40,-100.50
21360.94,-100.89
21382.47,-99.48
21404.00,-99.87
21425.54,-98.62
21447.07,-97.84
21468.60,-98.86
21490.14,-102.45
21511.67,-102.06
21533.20,-100.73
21554.74,-100.97
21576.27,-99.40
21597.80,-99.48
21619.34,-101.51
21640.87,-104.25
21662.40,-103.16
21683.94,-102.53
21705.47,-100.34
21727.00,-98.62
21748.54,-99.40
21770.07,-101.36
21791.60,-100.89
21813.13,-101.51
21834.67,-102.61
21856.20,-101.98
21877.73,-101.98
21899.27,-101.36
21920.80,-103.47
21942.33,-103.08
21963.87,-102.69
21985.40,-103.08
22006.93,-103.31
22028.47,-104.87
22050.00,-104.33
